time (s)	coil I (A)	last det (V)	int current (uC)
408668.573184	0.425562	220.703125	40.429687
408668.575185	0.755253	220.703125	40.429687
408668.577184	0.881133	220.703125	40.429687
408668.579185	0.878250	9.660754	0.017140
408669.655215	0.540074	29.101562	-659.863281
408669.657217	0.831764	29.101562	-659.863281
408669.659217	0.874951	29.101562	-659.863281
408669.661221	0.872417	9.596582	0.013285
408670.671321	0.590915	224.218750	40.820312
408670.673323	0.853910	224.218750	40.820312
408670.675323	0.874741	224.218750	40.820312
408670.681322	0.869730	9.567036	0.014377
408671.718339	0.327361	30.175781	-659.082031
408671.720342	0.664847	30.175781	-659.082031
408671.722349	0.872343	30.175781	-659.082031
408671.724347	0.874335	30.175781	-659.082031
408671.726347	0.872263	9.594890	0.018311
408672.768403	0.575524	225.781250	38.476562
408672.770403	0.848011	225.781250	38.476562
408672.772402	0.874698	225.781250	38.476562
408672.774404	0.872284	9.595129	0.013872
408673.816462	0.490742	31.152344	-653.125000
408673.818462	0.802946	31.152344	-653.125000
408673.820461	0.806760	31.152344	-653.125000
408673.822460	0.872944	9.602386	0.015143
408674.834509	0.825909	222.949219	43.164062
408674.836512	0.874394	222.949219	43.164062
408674.838510	0.871845	9.590299	0.013923
408675.880576	0.446082	36.132812	-648.437500
408675.882577	0.770800	36.132812	-648.437500
408675.884577	0.875822	36.132812	-648.437500
408675.888577	0.871056	9.581614	0.018766
408676.896607	0.483837	220.507812	47.070312
408676.898608	0.797953	220.507812	47.070312
408676.900610	0.874707	220.507812	47.070312
408676.902616	0.871905	9.590955	0.014921
408677.978638	0.596381	38.085937	-641.503906
408677.980641	0.854822	38.085937	-641.503906
408677.982641	0.873302	38.085937	-641.503906
408677.984641	0.871036	9.581401	0.054473
408678.996658	0.865665	221.777344	40.234375
408678.998658	0.873776	221.777344	40.234375
408679.000659	0.871656	9.588216	0.218816
408680.042658	0.537296	41.210937	-642.187500
408680.044661	0.829929	41.210937	-642.187500
408680.046661	0.874350	41.210937	-642.187500
408680.048660	0.871857	9.590431	0.018594
408681.059238	0.665079	222.167969	42.089844
408681.061235	0.872426	222.167969	42.089844
408681.063233	0.874510	222.167969	42.089844
408681.065233	0.872501	9.597512	0.012936
408682.139298	0.452024	38.867187	-642.480469
408682.143298	0.875670	38.867187	-642.480469
408682.145300	0.872719	38.867187	-642.480469
408682.149297	0.869598	9.565573	0.015002
408683.157296	0.797880	224.511719	39.453125
408683.159298	0.875060	224.511719	39.453125
408683.161299	0.872160	9.593764	0.009350
408684.205913	0.801114	39.843750	-647.558594
408684.207914	0.875207	39.843750	-647.558594
408684.209915	0.875084	9.625925	0.019489
408685.220861	0.678980	228.222656	39.062500
408685.222862	0.872491	228.222656	39.062500
408685.224862	0.872731	9.600039	0.019922
408686.300918	0.465809	34.960937	-650.097656
408686.302919	0.785522	34.960937	-650.097656
408686.304921	0.875259	34.960937	-650.097656
408686.306920	0.872332	9.595652	0.014240
408687.316997	0.511254	232.128906	36.230469
408687.318999	0.815223	232.128906	36.230469
408687.320999	0.874282	232.128906	36.230469
408687.322999	0.871667	9.588340	0.016620
408688.365040	0.422596	36.230469	-651.855469
408688.367042	0.434376	36.230469	-651.855469
408688.369042	0.875949	36.230469	-651.855469
408688.371041	0.872960	9.602555	0.019064
408689.413987	0.482893	235.156250	35.937500
408689.415988	0.797401	235.156250	35.937500
408689.417989	0.875298	235.156250	35.937500
408689.419989	0.872365	9.596015	0.014028
408690.462532	0.480176	34.667969	-652.636719
408690.464532	0.795415	34.667969	-652.636719
408690.466532	0.874854	34.667969	-652.636719
408690.468532	0.871983	9.591814	0.014028
408691.478536	0.512782	237.304687	37.597656
408691.480538	0.816197	237.304687	37.597656
408691.482539	0.874480	237.304687	37.597656
408691.484537	0.871798	9.589776	0.019682
408692.526577	0.423323	35.937500	-651.660156
408692.528579	0.752540	35.937500	-651.660156
408692.530579	0.876564	35.937500	-651.660156
408692.532580	0.873585	9.609432	0.017657
408693.577117	0.747821	239.746094	34.667969
408693.579117	0.875853	239.746094	34.667969
408693.581117	0.872943	9.602369	0.010661
408694.623172	0.328488	34.667969	-649.121094
408694.625173	0.665767	34.667969	-649.121094
408694.627182	0.872730	34.667969	-649.121094
408694.629181	0.874519	34.667969	-649.121094
408694.631183	0.874439	9.618826	0.013040
408695.639790	0.466431	240.234375	36.621094
408695.641790	0.785783	240.234375	36.621094
408695.643791	0.874847	240.234375	36.621094
408695.647789	0.870145	9.571599	0.018663
408696.687894	0.386810	36.132812	-649.804687
408696.691896	0.875165	36.132812	-649.804687
408696.693896	0.872818	36.132812	-649.804687
408696.695898	0.870945	9.580400	0.018949
408697.735914	0.288480	241.992187	35.644531
408697.737915	0.627789	241.992187	35.644531
408697.739917	0.864284	241.992187	35.644531
408697.741916	0.873641	241.992187	35.644531
408697.743917	0.871419	9.585610	0.013688
408698.785986	0.541960	34.960937	-646.875000
408698.787988	0.832266	34.960937	-646.875000
408698.789988	0.874240	34.960937	-646.875000
408698.791988	0.871732	9.589049	0.015969
408699.800525	0.327754	242.578125	37.109375
408699.804529	0.873049	242.578125	37.109375
408699.806532	0.875168	242.578125	37.109375
408699.808533	0.872997	9.602962	0.021643
408700.850536	0.569134	37.402344	-647.753906
408700.852539	0.844582	37.402344	-647.753906
408700.854536	0.873539	37.402344	-647.753906
408700.856539	0.871190	9.583085	0.022816
408701.899105	0.568346	243.261719	35.156250
408701.901107	0.844383	243.261719	35.156250
408701.903107	0.873731	243.261719	35.156250
408701.905107	0.871391	9.585300	0.016425
408702.947666	0.577618	36.914062	-643.359375
408702.949667	0.843405	36.914062	-643.359375
408702.951667	0.873905	36.914062	-643.359375
408702.953666	0.871571	9.587286	0.018010
408703.966175	0.873058	242.773437	35.546875
408703.968179	0.873003	9.603034	0.018353
408705.012239	0.597753	40.625000	-643.164062
408705.014241	0.855724	40.625000	-643.164062
408705.016240	0.873992	40.625000	-643.164062
408705.018241	0.871667	9.588340	0.045447
408706.060280	0.508758	242.968750	34.960937
408706.062281	0.813857	242.968750	34.960937
408706.064281	0.874578	242.968750	34.960937
408706.066282	0.871824	9.590068	0.015312
408707.109231	0.569973	39.941406	-629.003906
408707.111234	0.845446	39.941406	-629.003906
408707.113237	0.874297	39.941406	-629.003906
408707.115240	0.871853	9.590387	0.019217
408708.125285	0.611015	241.308594	35.644531
408708.127291	0.859946	241.308594	35.644531
408708.129285	0.873967	241.308594	35.644531
408708.131289	0.871737	9.589103	0.119169
408709.205345	0.397408	41.210937	-610.156250
408709.207346	0.730189	41.210937	-610.156250
408709.209347	0.876260	41.210937	-610.156250
408709.211345	0.873562	9.609184	0.016326
408710.221411	0.441245	240.917969	36.425781
408710.223411	0.767234	240.917969	36.425781
408710.225410	0.876895	240.917969	36.425781
408710.227412	0.873766	9.611426	0.010429
408711.272001	0.768542	45.703125	-620.996094
408711.274003	0.875616	45.703125	-620.996094
408711.276001	0.872580	9.598381	0.021066
408712.286489	0.556116	242.089844	39.257812
408712.288490	0.838934	242.089844	39.257812
408712.290489	0.873762	242.089844	39.257812
408712.292490	0.871364	9.585008	0.016521
408713.366489	0.327720	43.359375	-598.437500
408713.368501	0.665034	43.359375	-598.437500
408713.370499	0.873331	43.359375	-598.437500
408713.372497	0.875382	9.629204	0.018254
408714.382478	0.361117	243.457031	39.257812
408714.384481	0.696879	243.457031	39.257812
408714.386480	0.874049	243.457031	39.257812
408714.388481	0.872827	9.601093	0.011905
408715.432554	0.614364	45.507812	-612.890625
408715.434555	0.860396	45.507812	-612.890625
408715.436556	0.873265	45.507812	-612.890625
408715.438557	0.871087	9.581959	0.021237
408716.447148	0.410795	246.777344	40.039062
408716.449150	0.741893	246.777344	40.039062
408716.451151	0.876309	246.777344	40.039062
408716.453150	0.873484	9.608325	0.019349
408717.497191	0.656589	45.605469	-621.582031
408717.499193	0.869788	45.605469	-621.582031
408717.501201	0.873007	45.605469	-621.582031
408717.507208	0.868135	9.549488	0.028774
408718.543771	0.318008	251.660156	37.792969
408718.545772	0.655829	251.660156	37.792969
408718.547773	0.869843	251.660156	37.792969
408718.549772	0.873296	251.660156	37.792969
408718.551771	0.871218	9.583395	0.018474
408719.593817	0.567467	40.820312	-616.992187
408719.595821	0.843998	40.820312	-616.992187
408719.597821	0.873698	40.820312	-616.992187
408719.599821	0.871369	9.585061	0.022666
408720.611835	0.857388	254.785156	37.207031
408720.615835	0.871915	254.785156	37.207031
408720.617837	0.870374	9.574116	0.088026
408721.657905	0.519842	42.187500	-629.101562
408721.659908	0.820428	42.187500	-629.101562
408721.661907	0.874542	42.187500	-629.101562
408721.663907	0.871868	9.590547	0.025245
408722.706496	0.520867	257.421875	35.058594
408722.708497	0.820999	257.421875	35.058594
408722.710498	0.874622	257.421875	35.058594
408722.712499	0.871968	9.591646	0.018110
408723.754521	0.428987	39.453125	-623.046875
408723.756524	0.757167	39.453125	-623.046875
408723.758530	0.876484	39.453125	-623.046875
408723.760526	0.873413	9.607545	0.019575
408724.770631	0.480994	257.128906	38.183594
408724.772634	0.796108	257.128906	38.183594
408724.774635	0.875042	257.128906	38.183594
408724.776636	0.872176	9.593941	0.021647
408725.852657	0.592501	39.062500	-607.617187
408725.854657	0.853963	39.062500	-607.617187
408725.856656	0.874050	39.062500	-607.617187
408725.858657	0.871771	9.589483	0.027607
408726.868647	0.623130	257.910156	32.226562
408726.870649	0.863149	257.910156	32.226562
408726.872649	0.873764	257.910156	32.226562
408726.874657	0.871642	9.588057	0.168722
408727.916712	0.538498	42.285156	-616.992187
408727.918712	0.830346	42.285156	-616.992187
408727.920713	0.873997	42.285156	-616.992187
408727.922711	0.871504	9.586541	0.022064
408728.932755	0.577942	256.933594	34.863281
408728.934759	0.848443	256.933594	34.863281
408728.936757	0.873973	256.933594	34.863281
408728.938758	0.871670	9.588367	0.025669
408730.012820	0.363060	41.601562	-593.847656
408730.014824	0.698691	41.601562	-593.847656
408730.016826	0.875406	41.601562	-593.847656
408730.018825	0.873985	9.613837	0.019128
408731.028860	0.401393	257.812500	31.640625
408731.030863	0.733916	257.812500	31.640625
408731.032863	0.876779	257.812500	31.640625
408731.034862	0.874034	9.614378	0.015345
408732.076930	0.315247	46.191406	-610.058594
408732.078932	0.653277	46.191406	-610.058594
408732.080932	0.869645	46.191406	-610.058594
408732.082932	0.873456	46.191406	-610.058594
408732.084931	0.871439	9.585832	0.023135
408733.093504	0.447395	257.421875	34.277344
408733.095506	0.771848	257.421875	34.277344
408733.097507	0.876014	257.421875	34.277344
408733.099507	0.872986	9.602847	0.022812
408734.175588	0.568804	44.628906	-587.890625
408734.177589	0.844910	44.628906	-587.890625
408734.179589	0.874239	44.628906	-587.890625
408734.181589	0.871832	9.590148	0.017786
408735.191650	0.611091	259.179687	32.617187
408735.193649	0.859669	259.179687	32.617187
408735.195649	0.873571	259.179687	32.617187
408735.197649	0.871383	9.585212	0.121572
408736.239701	0.525852	47.656250	-605.859375
408736.241701	0.823878	47.656250	-605.859375
408736.243703	0.874560	47.656250	-605.859375
408736.245703	0.871952	9.591477	0.022563
408737.256640	0.713004	260.449219	33.593750
408737.258643	0.874969	260.449219	33.593750
408737.260643	0.872943	9.602378	0.021318
408738.336658	0.493174	44.042969	-582.519531
408738.338661	0.804448	44.042969	-582.519531
408738.340661	0.875504	44.042969	-582.519531
408738.342661	0.872666	9.599320	0.020478
408739.352661	0.526130	262.890625	31.250000
408739.354663	0.823846	262.890625	31.250000
408739.356663	0.874245	262.890625	31.250000
408739.358663	0.871713	9.588845	0.017186
408740.400718	0.438989	46.191406	-602.734375
408740.402721	0.765428	46.191406	-602.734375
408740.404721	0.876778	46.191406	-602.734375
408740.406722	0.873710	9.610815	0.026600
408741.416780	2.302418	265.039062	33.007812
408741.418781	0.796066	265.039062	33.007812
408741.420782	0.875239	265.039062	33.007812
408741.422783	0.872364	9.596005	0.026597
408742.500804	0.854342	42.480469	-584.375000
408742.502807	0.874147	42.480469	-584.375000
408742.504809	0.871861	9.590466	0.028212
408743.516805	0.864395	268.554687	30.566406
408743.518808	0.874233	268.554687	30.566406
408743.520810	0.872049	9.592541	0.201076
408744.564803	0.826209	43.945312	-601.074219
408744.566809	0.874626	43.945312	-601.074219
408744.568812	0.871990	9.591893	0.023504
408745.577395	0.322281	270.605469	34.277344
408745.579395	0.659842	270.605469	34.277344
408745.581396	0.870420	270.605469	34.277344
408745.583394	0.873141	270.605469	34.277344
408745.585395	0.871020	9.581223	0.029435
408746.659429	0.442778	40.917969	-575.976562
408746.661433	0.768318	40.917969	-575.976562
408746.663434	0.876340	40.917969	-575.976562
408746.665433	0.873257	9.605825	0.017144
408747.677441	0.792939	273.535156	32.031250
408747.679440	0.875074	273.535156	32.031250
408747.681442	0.872187	9.594056	0.018706
408748.720978	2.316291	44.433594	-592.773437
408748.726326	0.824987	44.433594	-592.773437
408748.728328	0.873888	44.433594	-592.773437
408748.730328	0.871310	9.584414	0.023993
408749.738856	0.311604	273.828125	36.230469
408749.740858	0.649704	273.828125	36.230469
408749.742858	0.869711	273.828125	36.230469
408749.744858	0.874415	273.828125	36.230469
408749.746858	0.872208	9.594287	0.031390
408750.820863	0.425731	42.773437	-558.496094
408750.822864	0.754554	42.773437	-558.496094
408750.824864	0.876499	42.773437	-558.496094
408750.826864	0.873487	9.608360	0.021001
408751.838888	0.783028	272.656250	37.207031
408751.840892	0.875389	272.656250	37.207031
408751.842891	0.872381	9.596192	0.022311
408752.884879	0.363167	49.121094	-579.003906
408752.886883	0.698595	49.121094	-579.003906
408752.888882	0.874187	49.121094	-579.003906
408752.892880	0.870904	9.579947	0.029240
408753.900918	0.402904	272.167969	38.574219
408753.902920	0.735124	272.167969	38.574219
408753.904920	0.878362	272.167969	38.574219
408753.906919	0.875697	9.632669	0.027847
408754.984963	0.820624	48.046875	-540.527344
408754.986966	0.874520	48.046875	-540.527344
408754.988966	0.871873	9.590600	0.022842
408755.999011	0.559128	271.484375	36.718750
408756.005009	0.871733	271.484375	36.718750
408756.007011	0.870087	271.484375	36.718750
408756.009011	0.868868	9.557552	0.017832
408757.046995	0.460398	53.222656	-560.937500
408757.048997	0.781696	53.222656	-560.937500
408757.050997	0.876489	53.222656	-560.937500
408757.052997	0.873395	9.607349	0.030327
408758.063480	0.573336	271.777344	37.695312
408758.065482	0.846177	271.777344	37.695312
408758.067480	0.873412	271.777344	37.695312
408758.069480	0.871034	9.581374	0.023936
408759.143507	0.352618	51.464844	-535.644531
408759.145508	0.688645	51.464844	-535.644531
408759.147509	0.874221	51.464844	-535.644531
408759.149509	0.873665	9.610319	0.026921
408760.159550	0.393128	273.828125	34.179687
408760.161552	0.726305	273.828125	34.179687
408760.163552	0.876269	273.828125	34.179687
408760.165554	0.873708	9.610788	0.022225
408761.207593	0.296583	54.296875	-556.347656
408761.209596	0.635265	54.296875	-556.347656
408761.211595	0.865774	54.296875	-556.347656
408761.213596	0.873278	54.296875	-556.347656
408761.215596	0.871127	9.582402	0.036472
408762.223632	0.338879	273.730469	37.011719
408762.225636	0.675415	273.730469	37.011719
408762.227637	0.871838	273.730469	37.011719
408762.229637	0.872449	9.596937	0.029245
408763.307642	0.775133	52.148437	-541.796875
408763.309644	0.875359	52.148437	-541.796875
408763.311645	0.872419	9.596608	0.027009
408764.322193	0.576227	277.539062	30.957031
408764.324196	0.847509	277.539062	30.957031
408764.326196	0.873540	277.539062	30.957031
408764.328196	0.871268	9.583944	0.020165
408765.370211	0.483883	54.199219	-565.625000
408765.372213	0.797732	54.199219	-565.625000
408765.374213	0.874569	54.199219	-565.625000
408765.376214	0.871722	9.588943	0.031452
408766.385153	0.334347	279.296875	33.789062
408766.389160	0.871362	279.296875	33.789062
408766.391160	0.872367	279.296875	33.789062
408766.393161	0.870257	9.572831	0.030026
408767.467226	0.460190	49.218750	-534.960937
408767.469229	0.780912	49.218750	-534.960937
408767.471228	0.874531	49.218750	-534.960937
408767.473228	0.871535	9.586886	0.024242
408768.483253	0.497034	282.324219	32.421875
408768.485255	0.806000	282.324219	32.421875
408768.487254	0.873692	282.324219	32.421875
408768.489254	0.870966	9.580621	0.019814
408769.531256	0.398846	50.195312	-552.734375
408769.535256	0.736165	50.195312	-552.734375
408769.537258	0.872588	50.195312	-552.734375
408769.539258	0.870758	9.578335	0.032401
408770.547286	0.438171	284.570312	32.031250
408770.549284	0.764126	284.570312	32.031250
408770.551285	0.875316	284.570312	32.031250
408770.553287	0.872358	9.595935	0.034698
408771.629326	0.554095	47.851562	-532.714844
408771.631328	0.837790	47.851562	-532.714844
408771.633329	0.873633	47.851562	-532.714844
408771.637327	0.869422	9.563641	0.025180
408772.645352	0.591440	287.109375	31.347656
408772.647354	0.852875	287.109375	31.347656
408772.649355	0.873142	287.109375	31.347656
408772.651355	0.870754	9.578300	0.024551
408773.694335	0.658463	51.660156	-563.964844
408773.696336	0.869469	51.660156	-563.964844
408773.698336	0.872369	51.660156	-563.964844
408773.700338	0.870266	9.572928	0.352341
408774.744365	0.843965	290.136719	26.953125
408774.746368	0.873239	290.136719	26.953125
408774.748367	0.870957	9.580523	0.017674
408775.792400	0.792594	49.511719	-544.726562
408775.794400	0.874112	49.511719	-544.726562
408775.796400	0.871221	9.583430	0.022478
408776.806413	0.512513	290.429687	29.785156
408776.808416	0.815723	290.429687	29.785156
408776.810421	0.874068	290.429687	29.785156
408776.812417	0.871363	9.584991	0.027767
408777.854443	0.420645	51.074219	-546.875000
408777.856445	0.749813	51.074219	-546.875000
408777.858444	0.875173	51.074219	-546.875000
408777.860444	0.872255	9.594810	0.031058
408778.904484	0.663483	292.089844	28.417969
408778.906481	0.871479	292.089844	28.417969
408778.908482	0.873588	9.609468	0.022027
408779.950984	0.314398	48.925781	-510.351562
408779.952987	0.652025	48.925781	-510.351562
408779.954986	0.868828	48.925781	-510.351562
408779.956985	0.872793	48.925781	-510.351562
408779.958985	0.870642	9.577058	0.027406
408780.967021	0.355970	292.089844	29.492187
408780.969022	0.691612	292.089844	29.492187
408780.971022	0.873557	292.089844	29.492187
408780.973023	0.873919	9.613111	0.029389
408782.017045	0.599219	54.589844	-545.605469
408782.019048	0.855233	54.589844	-545.605469
408782.021048	0.872732	54.589844	-545.605469
408782.023047	0.870430	9.574727	0.037063
408783.065622	0.269516	292.871094	27.050781
408783.067625	0.855067	292.871094	27.050781
408783.069625	0.872823	292.871094	27.050781
408783.071625	0.870544	9.575986	0.023566
408784.117707	0.873957	53.125000	-513.867187
408784.119710	0.871343	9.584768	0.030787
408785.130267	0.642897	292.480469	30.957031
408785.132268	0.866899	292.480469	30.957031
408785.134268	0.872681	292.480469	30.957031
408785.136267	0.870447	9.574913	0.027100
408786.210332	0.428589	51.464844	-466.406250
408786.214332	0.875137	51.464844	-466.406250
408786.216334	0.872227	51.464844	-466.406250
408786.218335	0.870362	9.573983	0.024478
408787.226348	0.463542	292.871094	30.566406
408787.228348	0.783640	292.871094	30.566406
408787.230349	0.875891	292.871094	30.566406
408787.232348	0.872877	9.601643	0.015920
408788.275247	2.074931	56.835937	-504.785156
408788.277248	0.818639	56.835937	-504.785156
408788.279250	0.873785	56.835937	-504.785156
408788.281248	0.871160	9.582757	0.029334
408789.291267	0.554164	292.871094	32.031250
408789.293268	0.838260	292.871094	32.031250
408789.295271	0.874354	292.871094	32.031250
408789.299267	0.870250	9.572751	0.024810
408790.368733	1.686706	53.125000	-441.210937
408790.373979	0.772074	53.125000	-441.210937
408790.375983	0.875523	53.125000	-441.210937
408790.377981	0.872542	9.597964	0.027376
408791.390032	0.801787	295.703125	29.882812
408791.392033	0.874810	295.703125	29.882812
408791.394034	0.872023	9.592257	0.018395
408792.438501	0.788837	57.519531	-482.910156
408792.440502	0.875104	57.519531	-482.910156
408792.442504	0.872168	9.593853	0.034144
408793.453057	0.596103	296.679687	32.812500
408793.455058	0.854908	296.679687	32.812500
408793.457058	0.873686	296.679687	32.812500
408793.459059	0.871408	9.585486	0.063129
408794.533119	0.380656	52.539062	-421.582031
408794.535118	0.714956	52.539062	-421.582031
408794.537120	0.876557	52.539062	-421.582031
408794.539120	0.874372	9.618091	0.027041
408795.551130	0.746179	300.488281	30.371094
408795.553133	0.876380	300.488281	30.371094
408795.555130	0.876347	9.639821	0.021260
408796.599569	0.725840	55.566406	-469.628906
408796.601571	0.876139	55.566406	-469.628906
408796.603570	0.873585	9.609432	0.033774
408797.614101	2.026492	301.464844	34.277344
408797.616104	0.817009	301.464844	34.277344
408797.618103	0.874196	301.464844	34.277344
408797.622102	0.869858	9.568436	0.029941
408798.662147	0.426149	54.882812	-480.859375
408798.664151	0.754845	54.882812	-480.859375
408798.666148	0.876598	54.882812	-480.859375
408798.668150	0.873491	9.608396	0.040591
408799.712199	0.673040	305.761719	31.738281
408799.714201	0.872391	305.761719	31.738281
408799.716202	0.873290	305.761719	31.738281
408799.718200	0.871203	9.583236	0.025258
408800.760786	0.669272	50.683594	-450.781250
408800.762787	0.872206	50.683594	-450.781250
408800.764790	0.873212	50.683594	-450.781250
408800.766788	0.871213	9.583342	0.031784
408801.774818	0.376480	308.398437	33.007812
408801.776820	0.711102	308.398437	33.007812
408801.778820	0.875459	308.398437	33.007812
408801.780820	0.873464	9.608103	0.038016
408802.857364	0.577672	48.144531	-432.421875
408802.859365	0.848356	48.144531	-432.421875
408802.861368	0.873802	48.144531	-432.421875
408802.863365	0.873725	9.610974	0.024323
408803.871483	0.291551	312.011719	29.687500
408803.873483	0.630630	312.011719	29.687500
408803.875483	0.865182	312.011719	29.687500
408803.877483	0.873914	312.011719	29.687500
408803.879484	0.871716	9.588881	0.031042
408804.924049	0.864266	51.855469	-485.839844
408804.926050	0.873605	51.855469	-485.839844
408804.930048	0.869853	9.568382	0.206015
408805.936020	0.318419	313.476562	29.003906
408805.938021	0.656212	313.476562	29.003906
408805.940021	0.870524	313.476562	29.003906
408805.942022	0.873990	313.476562	29.003906
408805.944023	0.871894	9.590839	0.038243
408807.018085	0.442845	48.144531	-431.640625
408807.020086	0.768645	48.144531	-431.640625
408807.022086	0.877186	48.144531	-431.640625
408807.026086	0.872299	9.595288	0.023990
408808.036079	0.791471	314.355469	27.343750
408808.038082	0.875883	314.355469	27.343750
408808.040080	0.872863	9.601492	0.027053
408809.082623	0.468273	50.390625	-453.808594
408809.084624	0.787509	50.390625	-453.808594
408809.086625	0.876058	50.390625	-453.808594
408809.088624	0.873048	9.603530	0.030807
408810.098673	0.509154	315.136719	27.832031
408810.100675	0.814336	315.136719	27.832031
408810.102673	0.818201	315.136719	27.832031
408810.104673	0.872413	9.596547	0.034615
408811.178712	1.668156	50.390625	-435.839844
408811.180714	0.625120	50.390625	-435.839844
408811.182714	0.863817	50.390625	-435.839844
408811.184714	0.873883	50.390625	-435.839844
408811.186714	0.871669	9.588358	0.027812
408812.196734	0.660301	316.601562	25.390625
408812.198735	0.870981	316.601562	25.390625
408812.200735	0.873697	316.601562	25.390625
408812.202736	0.871596	9.587561	0.027799
408813.244785	0.572929	53.808594	-462.109375
408813.246786	0.846674	53.808594	-462.109375
408813.248786	0.874289	53.808594	-462.109375
408813.250787	0.871970	9.591673	0.035102
408814.258832	0.273599	316.406250	27.343750
408814.260833	0.613777	316.406250	27.343750
408814.262834	0.861372	316.406250	27.343750
408814.264833	0.874913	316.406250	27.343750
408814.266833	0.872620	9.598815	0.039246
408815.340858	0.393220	52.148437	-423.535156
408815.342860	0.726652	52.148437	-423.535156
408815.346860	0.874432	52.148437	-423.535156
408815.348861	0.872518	9.597698	0.029963
408816.358872	0.756714	318.261719	24.316406
408816.360874	0.877034	318.261719	24.316406
408816.362876	0.874020	9.614218	0.027053
408817.405329	0.407263	55.273437	-457.714844
408817.407329	0.739384	55.273437	-457.714844
408817.409329	0.876753	55.273437	-457.714844
408817.411329	0.873942	9.613358	0.036738
408818.421363	0.446112	318.261719	29.003906
408818.425364	0.877820	318.261719	29.003906
408818.427364	0.874668	318.261719	29.003906
408818.429365	0.872811	9.600924	0.037190
408819.506309	0.875556	53.222656	-423.144531
408819.508310	0.873518	53.222656	-423.144531
408819.510311	0.871621	9.587826	0.028708
408820.518817	0.497165	321.093750	24.414062
408820.520819	0.807049	321.093750	24.414062
408820.522821	0.875351	321.093750	24.414062
408820.524818	0.872536	9.597894	0.029534
408821.566809	0.397681	55.957031	-454.199219
408821.568810	0.730732	55.957031	-454.199219
408821.570811	0.877246	55.957031	-454.199219
408821.572811	0.874662	9.621281	0.038965
408822.583344	1.738112	323.242187	28.222656
408822.585345	0.820030	323.242187	28.222656
408822.587345	0.875000	323.242187	28.222656
408822.589346	0.872340	9.595740	0.040959
408823.663346	0.288849	50.976562	-392.773437
408823.665350	0.628528	50.976562	-392.773437
408823.667349	0.865352	50.976562	-392.773437
408823.669348	0.874711	50.976562	-392.773437
408823.671348	0.872445	9.596892	0.028969
408824.681360	0.662309	325.878906	26.171875
408824.683361	0.871504	325.878906	26.171875
408824.685362	0.873955	325.878906	26.171875
408824.687363	0.871868	9.590547	0.368649
408825.730325	0.726578	54.980469	-442.871094
408825.732328	0.876634	54.980469	-442.871094
408825.734328	0.874015	9.614164	0.040743
408826.776961	0.402928	329.003906	25.195312
408826.778964	0.735373	329.003906	25.195312
408826.782962	0.874006	329.003906	25.195312
408826.784963	0.872207	9.594277	0.023223
408827.824941	0.299357	52.929687	-407.714844
408827.826943	0.638357	52.929687	-407.714844
408827.828942	0.867157	52.929687	-407.714844
408827.830943	0.874000	52.929687	-407.714844
408827.832942	0.871926	9.591185	0.029139
408828.843471	0.753604	331.250000	25.585937
408828.845473	0.876499	331.250000	25.585937
408828.847474	0.873512	9.608635	0.033057
408829.891533	0.673400	55.468750	-428.710937
408829.893537	0.873377	55.468750	-428.710937
408829.895535	0.874208	55.468750	-428.710937
408829.897536	0.872114	9.593250	0.038450
408830.942045	0.871916	332.812500	25.976562
408830.944047	0.874311	332.812500	25.976562
408830.946046	0.872163	9.593790	0.367486
408831.986593	0.320153	53.710937	-387.695312
408831.988594	0.658136	53.710937	-387.695312
408831.990595	0.870966	53.710937	-387.695312
408831.992593	0.874121	53.710937	-387.695312
408831.994593	0.872027	9.592301	0.029954
408833.005174	0.776896	334.179687	27.246094
408833.007177	0.877337	334.179687	27.246094
408833.009175	0.874177	9.615946	0.036304
408834.051642	0.435421	56.542969	-397.851562
408834.055641	0.879084	56.542969	-397.851562
408834.057643	0.876090	56.542969	-397.851562
408834.059643	0.874117	9.615291	0.042860
408835.099702	0.346909	334.472656	27.539062
408835.101705	0.683753	334.472656	27.539062
408835.103709	0.875769	334.472656	27.539062
408835.105707	0.875757	9.633326	0.028757
408836.151750	0.854725	56.250000	-356.250000
408836.153753	0.874601	56.250000	-356.250000
408836.155751	0.872271	9.594977	0.046761
408837.164292	0.382371	332.421875	30.175781
408837.166293	0.716913	332.421875	30.175781
408837.168296	0.876911	332.421875	30.175781
408837.170295	0.874778	9.622558	0.034893
408838.214344	0.628760	61.328125	-385.644531
408838.216346	0.865187	61.328125	-385.644531
408838.218346	0.866537	61.328125	-385.644531
408838.222344	0.870768	9.578449	0.224400
408839.262885	0.623602	333.203125	28.515625
408839.264887	0.864652	333.203125	28.515625
408839.266889	0.875499	333.203125	28.515625
408839.268889	0.873146	9.604603	0.180690
408840.309425	0.276187	57.519531	-311.328125
408840.311426	0.616560	57.519531	-311.328125
408840.313429	0.862168	57.519531	-311.328125
408840.317425	0.872402	57.519531	-311.328125
408840.319427	0.870950	9.580452	0.035614
408841.325455	0.318067	332.226562	31.054687
408841.327457	0.656171	332.226562	31.054687
408841.329458	0.870629	332.226562	31.054687
408841.331458	0.873996	332.226562	31.054687
408841.333458	0.871961	9.591566	0.027856
408842.377526	0.846538	65.429687	-377.929687
408842.379528	0.875335	65.429687	-377.929687
408842.381526	0.872848	9.601333	0.043516
408843.427611	0.876126	335.351562	26.074219
408843.429612	0.873231	335.351562	26.074219
408843.431612	0.871613	9.587747	0.025064
408844.471619	0.393903	61.425781	-322.363281
408844.473622	0.727397	61.425781	-322.363281
408844.475621	0.876198	61.425781	-322.363281
408844.479620	0.871795	9.589749	0.042065
408845.487664	0.434563	334.277344	29.492187
408845.491664	0.877274	334.277344	29.492187
408845.493667	0.874181	334.277344	29.492187
408845.495666	0.872448	9.596928	0.030601
408846.570199	0.631417	58.886719	-269.628906
408846.572206	0.865773	58.886719	-269.628906
408846.574209	0.874282	58.886719	-269.628906
408846.576209	0.872081	9.592896	0.233417
408847.586280	0.677824	336.328125	27.050781
408847.588277	0.874327	336.328125	27.050781
408847.590277	0.874734	9.622070	0.025718
408848.632830	0.337786	64.160156	-338.183594
408848.634838	0.675052	64.160156	-338.183594
408848.636841	0.874270	64.160156	-338.183594
408848.638841	0.875009	9.625101	0.040064
408849.649795	0.533530	337.597656	27.441406
408849.651796	0.828583	337.597656	27.441406
408849.653797	0.875492	337.597656	27.441406
408849.655797	0.872881	9.601687	0.034271
408850.729840	0.311780	58.886719	-262.304687
408850.731844	0.650379	58.886719	-262.304687
408850.733844	0.870546	58.886719	-262.304687
408850.735844	0.875161	58.886719	-262.304687
408850.737842	0.872974	9.602715	0.030899
408851.745841	0.346850	339.453125	26.074219
408851.747845	0.683704	339.453125	26.074219
408851.749844	0.874916	339.453125	26.074219
408851.751844	0.874805	9.622859	0.023760
408852.795851	0.585925	62.109375	-310.644531
408852.797851	0.852561	62.109375	-310.644531
408852.799853	0.875468	62.109375	-310.644531
408852.801852	0.873058	9.603636	0.040759
408853.813903	0.865598	341.503906	25.390625
408853.815905	0.874970	341.503906	25.390625
408853.817904	0.872726	9.599985	0.207437
408854.891957	0.414036	59.375000	-265.136719
408854.893958	0.745202	59.375000	-265.136719
408854.895960	0.877781	59.375000	-265.136719
408854.897961	0.874883	9.623718	0.034272
408855.910022	0.779540	343.554687	25.195312
408855.912024	0.876272	343.554687	25.195312
408855.914024	0.873204	9.605241	0.027285
408856.956993	0.521696	62.792969	-319.433594
408856.958995	0.821983	62.792969	-319.433594
408856.960995	0.875499	62.792969	-319.433594
408856.962997	0.875341	9.628753	0.043285
408857.973031	0.559992	344.824219	24.902344
408857.975034	0.841395	344.824219	24.902344
408857.977033	0.874859	344.824219	24.902344
408857.979033	0.872436	9.596794	0.039360
408859.053079	0.342613	59.472656	-264.160156
408859.057087	0.875354	59.472656	-264.160156
408859.059096	0.875701	59.472656	-264.160156
408859.061099	0.873550	9.609052	0.037664
408860.071105	0.714418	346.875000	24.511719
408860.073107	0.875689	346.875000	24.511719
408860.075106	0.873596	9.609556	0.029404
408861.119135	0.624267	63.964844	-323.535156
408861.121136	0.864210	63.964844	-323.535156
408861.123138	0.874704	63.964844	-323.535156
408861.125136	0.872403	9.596432	0.195056
408862.134086	0.481412	348.632812	25.195312
408862.136090	0.796723	348.632812	25.195312
408862.138088	0.875618	348.632812	25.195312
408862.142086	0.871010	9.581109	0.038754
408863.216087	0.589426	59.960937	-245.117187
408863.218090	0.853608	59.960937	-245.117187
408863.220092	0.875094	59.960937	-245.117187
408863.222092	0.872655	9.599205	0.034980
408864.232126	0.630135	349.804687	24.414062
408864.234128	0.865411	349.804687	24.414062
408864.236129	0.874281	349.804687	24.414062
408864.238129	0.872093	9.593019	0.027497
408865.282696	0.865297	64.257812	-305.664062
408865.284697	0.875132	64.257812	-305.664062
408865.286697	0.872857	9.601430	0.215243
408866.297274	0.752687	350.976562	26.757812
408866.299275	0.876977	350.976562	26.757812
408866.301274	0.873963	9.613598	0.038103
408867.377305	0.536936	62.597656	-257.910156
408867.379306	0.830337	62.597656	-257.910156
408867.381306	0.875342	62.597656	-257.910156
408867.383307	0.872741	9.600153	0.034589
408868.391800	0.314601	352.636719	23.339844
408868.393803	0.653091	352.636719	23.339844
408868.395804	0.870424	352.636719	23.339844
408868.397804	0.874452	352.636719	23.339844
408868.399802	0.872246	9.594703	0.032486
408869.441840	0.559460	66.210937	-292.675781
408869.443843	0.841314	66.210937	-292.675781
408869.445849	0.875143	66.210937	-292.675781
408869.447847	0.872656	9.599214	0.046515
408870.456357	0.343662	353.515625	26.464844
408870.458359	0.680710	353.515625	26.464844
408870.460360	0.874465	353.515625	26.464844
408870.462361	0.874523	9.619748	0.043839
408871.538340	0.452445	63.183594	-226.464844
408871.540343	0.776124	63.183594	-226.464844
408871.542343	0.876593	63.183594	-226.464844
408871.544344	0.873472	9.608191	0.041443
408872.554359	0.485430	355.175781	25.976562
408872.556359	0.799537	355.175781	25.976562
408872.558358	0.875873	355.175781	25.976562
408872.560358	0.872950	9.602448	0.031150
408873.602914	0.481620	64.648437	-240.332031
408873.604915	0.797672	64.648437	-240.332031
408873.606913	0.878001	64.648437	-240.332031
408873.608914	0.875014	9.625154	0.050312
408874.618989	0.527101	356.054687	28.613281
408874.620990	0.825385	356.054687	28.613281
408874.622990	0.876202	356.054687	28.613281
408874.624988	0.873449	9.607935	0.041954
408875.700999	0.640940	64.746094	-220.996094
408875.702999	0.868218	64.746094	-220.996094
408875.705000	0.874622	64.746094	-220.996094
408875.708996	0.871031	9.581339	0.038931
408876.715553	0.428832	358.984375	25.488281
408876.717555	0.757653	358.984375	25.488281
408876.719554	0.877320	358.984375	25.488281
408876.721554	0.874336	9.617692	0.030327
408877.763593	0.337614	66.308594	-235.449219
408877.765600	0.675013	66.308594	-235.449219
408877.767607	0.874660	66.308594	-235.449219
408877.769607	0.875399	66.308594	-235.449219
408877.771605	0.873274	9.606011	0.051327
408878.781648	0.715192	361.035156	27.734375
408878.783647	0.875808	361.035156	27.734375
408878.785649	0.873701	9.610709	0.042666
408879.861712	0.503422	63.476562	-195.800781
408879.863715	0.515245	63.476562	-195.800781
408879.865712	0.875725	63.476562	-195.800781
408879.867712	0.872935	9.602281	0.042488
408880.879806	0.704747	362.109375	27.636719
408880.881809	0.874694	362.109375	27.636719
408880.883808	0.872237	9.594606	0.033611
408881.924787	0.277843	66.015625	-237.695312
408881.926790	0.618137	66.015625	-237.695312
408881.928790	0.862696	66.015625	-237.695312
408881.930789	0.874789	66.015625	-237.695312
408881.934787	0.871068	9.581747	0.053180
408882.974825	0.529461	366.210937	24.902344
408882.976829	0.826362	366.210937	24.902344
408882.980826	0.872780	366.210937	24.902344
408882.982829	0.871113	9.582243	0.028807
408884.022901	0.446230	61.621094	-182.324219
408884.024903	0.771577	61.621094	-182.324219
408884.026902	0.877536	61.621094	-182.324219
408884.028903	0.874394	9.618330	0.043749
408885.038993	0.494280	368.457031	26.855469
408885.040995	0.805351	368.457031	26.855469
408885.042994	0.875642	368.457031	26.855469
408885.044995	0.872806	9.600863	0.038355
408886.087011	0.400067	64.941406	-248.828125
408886.089014	0.733113	64.941406	-248.828125
408886.091013	0.877786	64.941406	-248.828125
408886.093013	0.875118	9.626298	0.049236
408887.137936	0.781291	372.265625	22.949219
408887.139937	0.877228	372.265625	22.949219
408887.141936	0.874070	9.614767	0.028624
408888.184427	0.445584	59.667969	-188.769531
408888.186430	0.771116	59.667969	-188.769531
408888.188430	0.776286	59.667969	-188.769531
408888.190429	0.874471	9.619181	0.039287
408889.202436	0.795505	374.902344	24.023437
408889.204439	0.876604	374.902344	24.023437
408889.206438	0.873585	9.609432	0.039827
408890.250448	0.717492	62.597656	-246.679687
408890.252450	0.876003	62.597656	-246.679687
408890.254452	0.873788	9.611666	0.046704
408891.296992	0.376932	377.246094	23.144531
408891.300991	0.877147	377.246094	23.144531
408891.302994	0.875204	377.246094	23.144531
408891.304994	0.873251	9.605763	0.034794
408892.347011	0.620075	58.984375	-197.753906
408892.351012	0.875443	58.984375	-197.753906
408892.353013	0.873113	58.984375	-197.753906
408892.355013	0.871687	9.588553	0.184176
408893.363598	0.746194	379.003906	24.316406
408893.365597	0.751100	379.003906	24.316406
408893.367598	0.873907	9.612977	0.046173
408894.411625	0.658943	63.476562	-255.859375
408894.413627	0.871159	63.476562	-255.859375
408894.415626	0.874162	63.476562	-255.859375
408894.417628	0.872133	9.593463	0.051694
408895.459612	0.559003	381.152344	19.628906
408895.461616	0.841282	381.152344	19.628906
408895.463613	0.875387	381.152344	19.628906
408895.465616	0.872906	9.601962	0.036605
408896.508069	0.537330	60.253906	-210.156250
408896.510071	0.830401	60.253906	-210.156250
408896.512073	0.875044	60.253906	-210.156250
408896.514070	0.872478	9.597256	0.042493
408897.523020	0.394472	382.226562	21.191406
408897.525022	0.728111	382.226562	21.191406
408897.527022	0.877512	382.226562	21.191406
408897.529021	0.874919	9.624108	0.046267
408898.573080	0.643419	63.378906	-249.902344
408898.575082	0.868715	63.378906	-249.902344
408898.577084	0.874620	63.378906	-249.902344
408898.579082	0.872436	9.596794	0.051015
408899.619591	0.292081	383.007812	19.140625
408899.621592	0.631733	383.007812	19.140625
408899.623593	0.866036	383.007812	19.140625
408899.625592	0.874575	383.007812	19.140625
408899.627591	0.872318	9.595501	0.034557
408900.669604	0.536376	60.156250	-182.226562
408900.671606	0.830101	60.156250	-182.226562
408900.673604	0.875344	60.156250	-182.226562
408900.675605	0.872751	9.600260	0.041638
408901.685593	0.567265	384.472656	20.214844
408901.687594	0.844649	384.472656	20.214844
408901.689594	0.874807	384.472656	20.214844
408901.693593	0.870861	9.579469	0.042140
408902.735609	0.792491	64.257812	-235.253906
408902.737612	0.876253	64.257812	-235.253906
408902.739610	0.873174	9.604913	0.050361
408903.782141	0.465688	385.839844	19.335937
408903.784143	0.786114	385.839844	19.335937
408903.788143	0.873933	385.839844	19.335937
408903.790143	0.872247	9.594721	0.039094
408904.830682	0.461241	62.890625	-201.171875
408904.832684	0.782985	62.890625	-201.171875
408904.834682	0.877553	62.890625	-201.171875
408904.836684	0.874419	9.618605	0.043928
408905.846752	0.505739	386.816406	21.386719
408905.848754	0.812709	386.816406	21.386719
408905.850754	0.875847	386.816406	21.386719
408905.852754	0.875686	9.632545	0.046012
408906.927335	0.377406	58.789062	-123.144531
408906.929337	0.712659	58.789062	-123.144531
408906.931337	0.877955	58.789062	-123.144531
408906.933336	0.876063	9.636693	0.037078
408907.945393	0.749417	388.183594	18.164062
408907.947395	0.877106	388.183594	18.164062
408907.949395	0.874087	9.614953	0.035339
408908.993875	0.736088	62.402344	-176.367187
408908.997876	0.874192	62.402344	-176.367187
408908.999878	0.872250	9.594748	0.044129
408910.008428	0.528393	390.332031	19.921875
408910.010430	0.825775	390.332031	19.921875
408910.012430	0.875401	390.332031	19.921875
408910.014429	0.872700	9.599702	0.048122
408911.056480	0.440756	63.671875	-195.117187
408911.058480	0.767899	63.671875	-195.117187
408911.060481	0.881030	63.671875	-195.117187
408911.062482	0.878097	9.659070	0.058619
408912.106523	0.686831	392.089844	18.554687
408912.108524	0.874345	392.089844	18.554687
408912.110523	0.873900	9.612897	0.040269
408913.155077	0.683041	62.890625	-179.687500
408913.157080	0.874413	62.890625	-179.687500
408913.161078	0.872264	9.594907	0.043282
408914.170046	0.542343	394.628906	19.140625
408914.172047	0.833157	394.628906	19.140625
408914.174046	0.875327	394.628906	19.140625
408914.176046	0.872787	9.600659	0.050477
408915.218138	0.461704	64.941406	-201.855469
408915.220137	0.783254	64.941406	-201.855469
408915.222141	0.877358	64.941406	-201.855469
408915.224139	0.874221	9.616433	0.058942
408916.266237	0.381004	396.484375	18.750000
408916.270236	0.721668	396.484375	18.750000
408916.272237	0.875169	396.484375	18.750000
408916.274238	0.873178	9.604957	0.042578
408917.316258	0.625517	62.500000	-154.199219
408917.318258	0.864892	62.500000	-154.199219
408917.320260	0.875075	62.500000	-154.199219
408917.322259	0.872764	9.600402	0.048665
408918.330860	0.422574	398.242187	20.117187
408918.332862	0.752448	398.242187	20.117187
408918.334862	0.877760	398.242187	20.117187
408918.336862	0.874769	9.622460	0.057607
408919.412897	0.538292	57.910156	-62.792969
408919.414898	0.831138	57.910156	-62.792969
408919.416899	0.875478	57.910156	-62.792969
408919.418898	0.872850	9.601350	0.040232
408920.428937	0.576479	399.902344	19.531250
408920.430939	0.848536	399.902344	19.531250
408920.432939	0.874830	399.902344	19.531250
408920.434941	0.872465	9.597114	0.044743
408921.479015	0.806048	62.695312	-128.906250
408921.481017	0.876613	62.695312	-128.906250
408921.483018	0.873627	9.609893	0.047910
408922.493554	0.614847	400.683594	22.363281
408922.495557	0.861721	400.683594	22.363281
408922.497556	0.874822	400.683594	22.363281
408922.499557	0.872496	9.597460	0.164526
408923.573589	0.396266	59.765625	-52.050781
408923.575589	0.729670	59.765625	-52.050781
408923.577589	0.877528	59.765625	-52.050781
408923.579588	0.874952	9.624472	0.037588
408924.589600	0.430988	400.488281	22.265625
408924.591601	0.759602	400.488281	22.265625
408924.593600	0.878789	400.488281	22.265625
408924.597600	0.873898	9.612880	0.040717
408925.640594	0.810491	62.304687	-71.777344
408925.642600	0.876181	62.304687	-71.777344
408925.644599	0.873343	9.606773	0.047759
408926.654592	0.530453	401.171875	22.851562
408926.656594	0.826987	401.171875	22.851562
408926.658593	0.875692	401.171875	22.851562
408926.662592	0.871445	9.585895	0.055954
408927.736644	0.651365	60.742187	-20.605469
408927.738646	0.870224	60.742187	-20.605469
408927.740647	0.874679	60.742187	-20.605469
408927.742646	0.872492	9.597415	0.043763
408928.750651	0.348176	401.074219	20.800781
408928.752655	0.685078	401.074219	20.800781
408928.754658	0.878793	401.074219	20.800781
408928.756659	0.879015	9.669164	0.044678
408929.800702	0.598157	67.773437	-98.535156
408929.802705	0.856807	67.773437	-98.535156
408929.804704	0.875268	67.773437	-98.535156
408929.806705	0.872914	9.602058	0.058666
408930.815257	0.386847	401.367187	23.046875
408930.817258	0.721235	401.367187	23.046875
408930.821256	0.875043	401.367187	23.046875
408930.823258	0.873059	9.603645	0.054816
408931.897291	0.503379	63.964844	-13.671875
408931.899292	0.811260	63.964844	-13.671875
408931.901292	0.875944	63.964844	-13.671875
408931.903291	0.873040	9.603441	0.045983
408932.913295	0.536036	402.050781	22.656250
408932.915296	0.829985	402.050781	22.656250
408932.917296	0.875648	402.050781	22.656250
408932.919298	0.872993	9.602919	0.037091
408933.963370	0.775856	66.796875	-40.039062
408933.965371	0.876981	66.796875	-40.039062
408933.967372	0.873865	9.612516	0.056426
408934.977416	0.491941	402.929687	24.316406
408934.979418	0.803930	402.929687	24.316406
408934.981417	0.875995	402.929687	24.316406
408934.983416	0.873001	9.603016	0.050469
408936.057455	0.267986	67.187500	-27.929687
408936.059456	0.608799	67.187500	-27.929687
408936.061459	0.859827	67.187500	-27.929687
408936.065459	0.872272	67.187500	-27.929687
408936.067460	0.870852	9.579371	0.049878
408937.074032	0.402238	404.394531	21.972656
408937.076032	0.734855	404.394531	21.972656
408937.078033	0.876625	404.394531	21.972656
408937.080034	0.873782	9.611604	0.040912
408938.122988	1.795805	68.945312	-33.984375
408938.124988	0.786720	68.945312	-33.984375
408938.126996	0.876874	68.945312	-33.984375
408938.128999	0.873811	9.611922	0.062443
408939.139472	0.579053	405.175781	24.023437
408939.141472	0.849712	405.175781	24.023437
408939.145472	0.872710	405.175781	24.023437
408939.147476	0.871220	9.583422	0.054821
408940.220466	0.519073	66.601562	12.207031
408940.222468	0.820786	66.601562	12.207031
408940.224468	0.876054	66.601562	12.207031
408940.226467	0.873318	9.606499	0.050050
408941.240500	0.875424	406.933594	21.386719
408941.242501	0.872845	9.601297	0.041046
408942.284533	0.464556	69.921875	-31.347656
408942.286536	0.785669	69.921875	-31.347656
408942.288535	0.878567	69.921875	-31.347656
408942.290535	0.875564	9.631207	0.065062
408943.332533	0.368066	407.617187	19.433594
408943.334534	0.703810	407.617187	19.433594
408943.336533	0.876164	407.617187	19.433594
408943.338532	0.874610	9.620714	0.032693
408944.381501	0.436004	70.605469	-34.277344
408944.383503	0.763786	70.605469	-34.277344
408944.385505	0.879245	70.605469	-34.277344
408944.387503	0.876248	9.638731	0.050566
408945.397556	0.478078	409.375000	19.531250
408945.399560	0.794861	409.375000	19.531250
408945.401558	0.798693	409.375000	19.531250
408945.405556	0.872129	9.593418	0.042685
408946.447571	0.717394	71.875000	-45.019531
408946.449572	0.876322	71.875000	-45.019531
408946.451573	0.874017	9.614192	0.066774
408947.495569	0.621371	410.449219	18.554687
408947.497569	0.863741	410.449219	18.554687
408947.499570	0.875055	410.449219	18.554687
408947.501570	0.872773	9.600508	0.174388
408948.543611	0.531711	67.382812	25.390625
408948.545612	0.827850	67.382812	25.390625
408948.547611	0.875897	67.382812	25.390625
408948.549611	0.873274	9.606011	0.052694
408949.559680	0.574161	412.011719	18.847656
408949.561682	0.847946	412.011719	18.847656
408949.563681	0.875458	412.011719	18.847656
408949.565682	0.872927	9.602201	0.048000
408950.607727	0.488150	73.144531	-47.460937
408950.609728	0.801427	73.144531	-47.460937
408950.611729	0.875996	73.144531	-47.460937
408950.613729	0.873040	9.603441	0.073617
408951.657736	0.725255	412.988281	17.675781
408951.659737	0.876720	412.988281	17.675781
408951.661738	0.874182	9.615999	0.033595
408952.706338	0.729378	70.312500	-5.273437
408952.708344	0.877060	70.312500	-5.273437
408952.710348	0.874420	9.618623	0.054287
408953.720892	0.522041	415.136719	19.042969
408953.722894	0.822216	415.136719	19.042969
408953.724894	0.875286	415.136719	19.042969
408953.726894	0.872627	9.598895	0.043565
408954.769455	0.520028	74.316406	-48.730469
408954.771455	0.821246	74.316406	-48.730469
408954.773455	0.875820	74.316406	-48.730469
408954.779453	0.870207	9.572282	0.070082
408955.818038	0.521348	416.210937	17.968750
408955.820040	0.821836	416.210937	17.968750
408955.822042	0.875476	416.210937	17.968750
408955.824040	0.872806	9.600863	0.032624
408956.866628	0.524366	71.289062	-3.906250
408956.868631	0.823559	71.289062	-3.906250
408956.870631	0.875575	71.289062	-3.906250
408956.872629	0.872883	9.601713	0.055005
408957.881572	0.377878	418.164062	18.750000
408957.883573	0.712958	418.164062	18.750000
408957.885575	0.876783	418.164062	18.750000
408957.887574	0.874705	9.621759	0.049270
408958.963614	0.496486	67.773437	67.773437
408958.965616	0.806883	67.773437	67.773437
408958.967616	0.875857	67.773437	67.773437
408958.969616	0.872958	9.602537	0.046789
408959.979607	0.527243	419.238281	17.285156
408959.981610	0.825126	419.238281	17.285156
408959.983610	0.875535	419.238281	17.285156
408959.985608	0.872906	9.601971	0.038568
408961.027662	0.439404	71.875000	9.472656
408961.029663	0.766571	71.875000	9.472656
408961.031662	0.879815	71.875000	9.472656
408961.033664	0.876931	9.646246	0.058977
408962.046567	0.863169	422.363281	18.945312
408962.048569	0.874258	422.363281	18.945312
408962.050569	0.872064	9.592710	0.050593
408963.124595	0.400860	66.308594	105.371094
408963.126597	0.733728	66.308594	105.371094
408963.128596	0.877689	66.308594	105.371094
408963.130599	0.875074	9.625819	0.045399
408964.140660	0.446449	423.632812	18.945312
408964.142662	0.771620	423.632812	18.945312
408964.144662	0.877230	423.632812	18.945312
408964.146661	0.874093	9.615025	0.037638
408965.189569	0.501525	72.949219	19.824219
408965.191571	0.809844	72.949219	19.824219
408965.193571	0.875407	72.949219	19.824219
408965.195570	0.872634	9.598974	0.057873
408966.204556	0.362642	426.074219	19.531250
408966.206558	0.698648	426.074219	19.531250
408966.208557	0.875529	426.074219	19.531250
408966.210557	0.874133	9.615459	0.047152
408967.286601	0.479642	67.480469	107.421875
408967.288601	0.795617	67.480469	107.421875
408967.290602	0.875850	67.480469	107.421875
408967.292604	0.872887	9.601758	0.048955
408968.302643	0.519214	427.343750	17.871094
408968.304644	0.820579	427.343750	17.871094
408968.306646	0.875574	427.343750	17.871094
408968.308645	0.872836	9.601191	0.040041
408969.352704	0.760629	72.265625	34.765625
408969.354705	0.876799	72.265625	34.765625
408969.356705	0.873698	9.610673	0.059736
408970.366689	0.463340	430.566406	20.312500
408970.370689	0.876585	430.566406	20.312500
408970.372691	0.873546	430.566406	20.312500
408970.374691	0.871807	9.589873	0.054627
408971.448877	0.602554	66.113281	128.320312
408971.450877	0.857778	66.113281	128.320312
408971.452879	0.874527	66.113281	128.320312
408971.454878	0.872238	9.594614	0.090996
408972.462924	0.306008	431.738281	17.968750
408972.464928	0.644737	431.738281	17.968750
408972.466930	0.868856	431.738281	17.968750
408972.468935	0.874441	431.738281	17.968750
408972.470936	0.872319	9.595510	0.042730
408973.514999	0.841780	70.214844	58.886719
408973.517000	0.875399	70.214844	58.886719
408973.520999	0.871302	9.584317	0.059804
408974.527540	0.346012	434.277344	19.335937
408974.529540	0.379167	434.277344	19.335937
408974.531543	0.874681	434.277344	19.335937
408974.533539	0.874686	9.621548	0.055147
408975.609575	0.464660	65.429687	123.046875
408975.611576	0.785681	65.429687	123.046875
408975.613576	0.878480	65.429687	123.046875
408975.615575	0.875394	9.629337	0.046748
408976.627669	0.816983	436.132812	16.406250
408976.629671	0.875453	436.132812	16.406250
408976.631671	0.872695	9.599648	0.042917
