time (s)	coil I (A)	last det (V)	int current (uC)
4291.537428	0.685405	52.636719	-508.984375
4291.539430	1.010570	52.636719	-508.984375
4291.541429	1.312838	52.636719	-508.984375
4291.543430	1.603730	52.636719	-508.984375
4291.545432	1.884013	52.636719	-508.984375
4291.547429	2.147228	52.636719	-508.984375
4291.549430	2.406803	52.636719	-508.984375
4291.551432	2.549436	52.636719	-508.984375
4291.553430	2.544439	27.988825	0.052699
4292.581933	1.177914	191.406250	87.304687
4292.583935	1.471753	191.406250	87.304687
4292.587933	2.028888	191.406250	87.304687
4292.589937	2.288873	191.406250	87.304687
4292.591936	2.516679	191.406250	87.304687
4292.593935	2.547328	191.406250	87.304687
4292.595934	2.542224	27.964460	0.038855
4293.619981	0.510989	53.320312	-508.203125
4293.621982	0.843803	53.320312	-508.203125
4293.623982	1.158874	53.320312	-508.203125
4293.625983	1.171316	53.320312	-508.203125
4293.627981	1.739991	53.320312	-508.203125
4293.629983	2.012326	53.320312	-508.203125
4293.631982	2.272309	53.320312	-508.203125
4293.633982	2.507696	53.320312	-508.203125
4293.635982	2.547740	53.320312	-508.203125
4293.639979	2.539191	27.931095	0.053546
4294.659932	0.395758	207.812500	90.917969
4294.661932	0.732150	207.812500	90.917969
4294.663932	1.055008	207.812500	90.917969
4294.665933	1.353886	207.812500	90.917969
4294.667931	1.643842	207.812500	90.917969
4294.671930	2.183495	207.812500	90.917969
4294.673933	2.441881	207.812500	90.917969
4294.675932	2.550520	207.812500	90.917969
4294.677932	2.550294	28.053236	0.042908
4295.701932	0.409588	58.398437	-502.441406
4295.703936	0.745547	58.398437	-502.441406
4295.705934	1.067612	58.398437	-502.441406
4295.709933	1.655329	58.398437	-502.441406
4295.711935	1.933319	58.398437	-502.441406
4295.713934	2.193867	58.398437	-502.441406
4295.715934	2.451214	58.398437	-502.441406
4295.717935	2.550270	58.398437	-502.441406
4295.719935	2.544146	27.985607	0.050941
4296.743927	0.592622	207.421875	90.820312
4296.745931	0.922618	207.421875	90.820312
4296.747929	1.231657	207.421875	90.820312
4296.749930	1.524050	207.421875	90.820312
4296.751930	1.808062	207.421875	90.820312
4296.753931	2.075930	207.421875	90.820312
4296.755929	2.335610	207.421875	90.820312
4296.757929	2.535810	207.421875	90.820312
4296.759929	2.545528	207.421875	90.820312
4296.761931	2.540855	27.949404	0.061800
4297.785990	0.617824	47.167969	-515.136719
4297.787992	0.946555	47.167969	-515.136719
4297.789995	1.253696	47.167969	-515.136719
4297.791992	1.545932	47.167969	-515.136719
4297.793992	1.828766	47.167969	-515.136719
4297.795993	2.095405	47.167969	-515.136719
4297.797992	2.355062	47.167969	-515.136719
4297.799993	2.541719	47.167969	-515.136719
4297.801993	2.545633	47.167969	-515.136719
4297.803993	2.541087	27.951956	0.184731
4298.826062	0.480273	206.347656	90.917969
4298.828065	0.813904	206.347656	90.917969
4298.830063	1.131224	206.347656	90.917969
4298.832062	1.426398	206.347656	90.917969
4298.834063	1.714087	206.347656	90.917969
4298.836063	1.988241	206.347656	90.917969
4298.838063	2.248353	206.347656	90.917969
4298.840063	2.492745	206.347656	90.917969
4298.842062	2.548190	206.347656	90.917969
4298.844063	2.542442	27.966864	0.043024
4299.868079	0.495388	53.320312	-508.398437
4299.870082	0.828588	53.320312	-508.398437
4299.872082	1.144863	53.320312	-508.398437
4299.874081	1.439617	53.320312	-508.398437
4299.876080	1.726788	53.320312	-508.398437
4299.880081	2.260096	53.320312	-508.398437
4299.882081	2.500379	53.320312	-508.398437
4299.886078	2.542472	53.320312	-508.398437
4299.888082	2.539091	27.930004	0.049548
4300.910071	0.681136	204.101562	90.234375
4300.912075	1.006544	204.101562	90.234375
4300.914073	1.309060	204.101562	90.234375
4300.916074	1.599979	204.101562	90.234375
4300.918072	1.880368	204.101562	90.234375
4300.920073	2.143857	204.101562	90.234375
4300.922074	2.403324	204.101562	90.234375
4300.924074	2.549610	204.101562	90.234375
4300.926073	2.544922	27.994141	0.042546
4301.952588	0.780359	37.500000	-524.414062
4301.954592	1.100198	37.500000	-524.414062
4301.956590	1.396264	37.500000	-524.414062
4301.958591	1.685243	37.500000	-524.414062
4301.960590	1.961270	37.500000	-524.414062
4301.962591	2.221488	37.500000	-524.414062
4301.964591	2.473767	37.500000	-524.414062
4301.968589	2.543962	37.500000	-524.414062
4301.970591	2.540351	27.943865	0.050268
4302.992595	0.630674	199.218750	88.574219
4302.994597	0.958702	199.218750	88.574219
4302.996597	1.264911	199.218750	88.574219
4302.998597	1.556624	199.218750	88.574219
4303.000597	1.838927	199.218750	88.574219
4303.002597	2.104936	199.218750	88.574219
4303.004598	2.364496	199.218750	88.574219
4303.006597	2.543796	199.218750	88.574219
4303.008598	2.545337	199.218750	88.574219
4303.010596	2.540841	27.949255	0.233014
4304.034636	0.650334	44.042969	-518.359375
4304.036637	0.977393	44.042969	-518.359375
4304.038637	1.282192	44.042969	-518.359375
4304.042634	1.855011	44.042969	-518.359375
4304.044638	2.120081	44.042969	-518.359375
4304.046637	2.379640	44.042969	-518.359375
4304.048636	2.546286	44.042969	-518.359375
4304.050636	2.544586	44.042969	-518.359375
4304.052636	2.540256	27.942820	0.052845
4305.076666	0.755967	206.445312	90.820312
4305.078668	1.077423	206.445312	90.820312
4305.080668	1.374581	206.445312	90.820312
4305.082669	1.664213	206.445312	90.820312
4305.084671	1.941577	206.445312	90.820312
4305.086671	2.202471	206.445312	90.820312
4305.088672	2.458558	206.445312	90.820312
4305.090675	2.550107	206.445312	90.820312
4305.092675	2.544013	27.984146	0.040514
4306.117594	0.590589	38.574219	-523.242187
4306.119597	0.920805	38.574219	-523.242187
4306.123595	1.522475	38.574219	-523.242187
4306.125596	1.806402	38.574219	-523.242187
4306.127595	2.074468	38.574219	-523.242187
4306.129595	2.082778	38.574219	-523.242187
4306.131596	2.536215	38.574219	-523.242187
4306.133596	2.546932	38.574219	-523.242187
4306.135597	2.542084	27.962919	0.051247
4307.157634	2.568542	204.589844	90.429687
4307.159636	0.780630	204.589844	90.429687
4307.163633	1.396443	204.589844	90.429687
4307.165635	1.685448	204.589844	90.429687
4307.167637	1.961398	204.589844	90.429687
4307.169634	2.221656	204.589844	90.429687
4307.171635	2.473742	204.589844	90.429687
4307.173636	2.477373	204.589844	90.429687
4307.175634	2.543270	27.975973	0.040930
4308.204169	1.116262	37.304687	-525.000000
4308.206170	1.411842	37.304687	-525.000000
4308.208171	1.700269	37.304687	-525.000000
4308.210170	1.975280	37.304687	-525.000000
4308.212170	2.235326	37.304687	-525.000000
4308.214170	2.484284	37.304687	-525.000000
4308.216171	2.550176	37.304687	-525.000000
4308.218170	2.544295	27.987246	0.049127
4309.240211	0.406171	208.789062	91.503906
4309.242212	0.742187	208.789062	91.503906
4309.244211	1.064443	208.789062	91.503906
4309.246212	1.362537	208.789062	91.503906
4309.248213	1.652390	208.789062	91.503906
4309.250211	1.930586	208.789062	91.503906
4309.252213	2.191166	208.789062	91.503906
4309.254211	2.448726	208.789062	91.503906
4309.256212	2.549666	208.789062	91.503906
4309.258211	2.543449	27.977942	0.040945
4310.284214	0.751718	38.085937	-524.023437
4310.286215	1.073408	38.085937	-524.023437
4310.288217	1.370869	38.085937	-524.023437
4310.290214	1.660624	38.085937	-524.023437
4310.292217	1.938275	38.085937	-524.023437
4310.294215	2.198756	38.085937	-524.023437
4310.296215	2.455285	38.085937	-524.023437
4310.298215	2.550369	38.085937	-524.023437
4310.300216	2.544184	27.986023	0.050942
4311.324220	0.521070	206.250000	91.210937
4311.326221	0.853550	206.250000	91.210937
4311.328222	1.167854	206.250000	91.210937
4311.330221	1.461944	206.250000	91.210937
4311.332222	1.748260	206.250000	91.210937
4311.334221	2.020159	206.250000	91.210937
4311.336221	2.280008	206.250000	91.210937
4311.338223	2.511899	206.250000	91.210937
4311.340221	2.547130	206.250000	91.210937
4311.342221	2.541764	27.959410	0.040137
4312.366211	0.618823	39.062500	-522.949219
4312.368211	0.947562	39.062500	-522.949219
4312.370213	1.254630	39.062500	-522.949219
4312.372211	1.546573	39.062500	-522.949219
4312.374211	1.829469	39.062500	-522.949219
4312.376211	2.096053	39.062500	-522.949219
4312.380210	2.541860	39.062500	-522.949219
4312.382212	2.545554	39.062500	-522.949219
4312.384211	2.540995	27.950947	0.185633
4313.408237	0.723347	205.273437	90.625000
4313.410239	1.046527	205.273437	90.625000
4313.412239	1.346021	205.273437	90.625000
4313.414239	1.636205	205.273437	90.625000
4313.416239	1.915094	205.273437	90.625000
4313.418240	2.176578	205.273437	90.625000
4313.420239	2.435383	205.273437	90.625000
4313.422241	2.550536	205.273437	90.625000
4313.424239	2.544369	27.988062	0.044462
4314.451167	0.888043	42.968750	-519.824219
4314.453167	1.199719	42.968750	-519.824219
4314.455168	1.492890	42.968750	-519.824219
4314.459166	2.047862	42.968750	-519.824219
4314.461167	2.307675	42.968750	-519.824219
4314.463168	2.525805	42.968750	-519.824219
4314.465167	2.547111	42.968750	-519.824219
4314.467167	2.542112	27.963230	0.048490
4315.491242	0.753808	199.609375	89.355469
4315.493243	1.075404	199.609375	89.355469
4315.495243	1.372690	199.609375	89.355469
4315.497245	1.662293	199.609375	89.355469
4315.499242	1.939869	199.609375	89.355469
4315.501244	2.200294	199.609375	89.355469
4315.503253	2.456635	199.609375	89.355469
4315.505256	2.550307	199.609375	89.355469
4315.507257	2.544007	27.984076	0.041157
4316.533306	0.777764	50.000000	-513.085937
4316.537304	1.393858	50.000000	-513.085937
4316.539307	1.682914	50.000000	-513.085937
4316.541307	1.958968	50.000000	-513.085937
4316.543308	2.219330	50.000000	-513.085937
4316.545306	2.472152	50.000000	-513.085937
4316.547308	2.550527	50.000000	-513.085937
4316.549308	2.544443	27.988876	0.051692
4317.573851	0.718382	207.031250	91.113281
4317.575853	1.041837	207.031250	91.113281
4317.577853	1.341660	207.031250	91.113281
4317.579854	1.631918	207.031250	91.113281
4317.581855	1.910959	207.031250	91.113281
4317.583853	2.172609	207.031250	91.113281
4317.585854	2.431688	207.031250	91.113281
4317.587853	2.550832	207.031250	91.113281
4317.589854	2.544854	27.993397	0.043673
4318.615904	0.655524	38.281250	-524.023437
4318.617906	0.982332	38.281250	-524.023437
4318.619907	1.286774	38.281250	-524.023437
4318.621910	1.578092	38.281250	-524.023437
4318.623910	1.860078	38.281250	-524.023437
4318.625910	2.124792	38.281250	-524.023437
4318.627910	2.384423	38.281250	-524.023437
4318.629912	2.548026	38.281250	-524.023437
4318.631911	2.545624	38.281250	-524.023437
4318.633911	2.541283	27.954111	0.050906
4319.655973	0.602769	198.339844	88.769531
4319.659974	1.240566	198.339844	88.769531
4319.661975	1.532744	198.339844	88.769531
4319.663974	1.816184	198.339844	88.769531
4319.665974	2.083608	198.339844	88.769531
4319.669973	2.538735	198.339844	88.769531
4319.671974	2.546082	198.339844	88.769531
4319.673974	2.541399	27.955395	0.102105
4320.698010	0.450653	45.703125	-517.187500
4320.700013	0.785302	45.703125	-517.187500
4320.702011	1.104767	45.703125	-517.187500
4320.708010	1.965249	45.703125	-517.187500
4320.710013	2.225384	45.703125	-517.187500
4320.712013	2.476660	45.703125	-517.187500
4320.714013	2.549811	45.703125	-517.187500
4320.716013	2.543862	27.982477	0.048472
4321.737996	0.470299	197.656250	89.160156
4321.739998	0.804309	197.656250	89.160156
4321.743998	1.417642	197.656250	89.160156
4321.747996	1.980406	197.656250	89.160156
4321.749998	2.240468	197.656250	89.160156
4321.751999	2.487312	197.656250	89.160156
4321.754000	2.548249	197.656250	89.160156
4321.756000	2.542463	27.967094	0.041871
4322.779950	0.297062	54.980469	-507.812500
4322.781951	0.637439	54.980469	-507.812500
4322.783952	0.965185	54.980469	-507.812500
4322.787954	1.563194	54.980469	-507.812500
4322.789955	1.845195	54.980469	-507.812500
4322.791956	2.110874	54.980469	-507.812500
4322.793954	2.370414	54.980469	-507.812500
4322.795955	2.545019	54.980469	-507.812500
4322.801954	2.537627	54.980469	-507.812500
4322.803955	2.535469	27.890160	0.055183
4323.821868	0.598904	204.003906	90.429687
4323.823872	0.890547	204.003906	90.429687
4323.825871	1.202027	204.003906	90.429687
4323.827871	1.495197	204.003906	90.429687
4323.829871	1.780330	204.003906	90.429687
4323.831871	2.049950	204.003906	90.429687
4323.833870	2.309791	204.003906	90.429687
4323.835871	2.526496	204.003906	90.429687
4323.837872	2.546644	204.003906	90.429687
4323.839872	2.541649	27.958136	0.042037
4324.864386	0.571109	39.160156	-523.144531
4324.866390	0.902146	39.160156	-523.144531
4324.868394	1.213036	39.160156	-523.144531
4324.870392	1.506129	39.160156	-523.144531
4324.872392	1.790784	39.160156	-523.144531
4324.874391	2.059743	39.160156	-523.144531
4324.876391	2.319559	39.160156	-523.144531
4324.880391	2.546174	39.160156	-523.144531
4324.882392	2.541287	39.160156	-523.144531
4324.884392	2.538221	27.920435	0.048766
4325.904416	0.512488	200.097656	89.453125
4325.906422	0.845113	200.097656	89.453125
4325.908424	1.161013	200.097656	89.453125
4325.910425	1.455235	200.097656	89.453125
4325.912424	1.741823	200.097656	89.453125
4325.914425	2.014092	200.097656	89.453125
4325.916424	2.274031	200.097656	89.453125
4325.918423	2.508663	200.097656	89.453125
4325.920423	2.547567	200.097656	89.453125
4325.922424	2.542197	27.964161	0.041856
4326.946451	0.447234	52.539062	-510.253906
4326.948453	0.781963	52.539062	-510.253906
4326.950453	1.101644	52.539062	-510.253906
4326.952452	1.397617	52.539062	-510.253906
4326.954454	1.686576	52.539062	-510.253906
4326.956453	1.962495	52.539062	-510.253906
4326.958453	2.222764	52.539062	-510.253906
4326.960454	2.474618	52.539062	-510.253906
4326.962453	2.549455	52.539062	-510.253906
4326.964454	2.543428	27.977711	0.053677
4327.987327	0.615773	193.164062	87.207031
4327.989330	0.944621	193.164062	87.207031
4327.991329	1.251887	193.164062	87.207031
4327.993330	1.544024	193.164062	87.207031
4327.995329	1.826925	193.164062	87.207031
4327.997329	2.093717	193.164062	87.207031
4327.999329	2.353377	193.164062	87.207031
4328.001330	2.541579	193.164062	87.207031
4328.003330	2.546022	193.164062	87.207031
4328.005329	2.541361	27.954969	0.041852
4329.029371	0.378186	50.292969	-512.792969
4329.031374	0.715273	50.292969	-512.792969
4329.033373	1.038883	50.292969	-512.792969
4329.035372	1.338998	50.292969	-512.792969
4329.037373	1.629224	50.292969	-512.792969
4329.039375	1.640950	50.292969	-512.792969
4329.041373	2.170229	50.292969	-512.792969
4329.043373	2.429422	50.292969	-512.792969
4329.045379	2.550828	50.292969	-512.792969
4329.047379	2.544803	27.992828	0.050898
4330.069406	0.491396	197.265625	88.769531
4330.071406	0.824746	197.265625	88.769531
4330.073407	1.141246	197.265625	88.769531
4330.075406	1.436050	197.265625	88.769531
4330.077406	1.723381	197.265625	88.769531
4330.079407	1.996914	197.265625	88.769531
4330.083405	2.498223	197.265625	88.769531
4330.085407	2.547757	197.265625	88.769531
4330.087406	2.542210	27.964312	0.041926
4331.115427	0.833428	55.664062	-506.738281
4331.119427	1.443913	55.664062	-506.738281
4331.121429	1.730863	55.664062	-506.738281
4331.123428	2.003836	55.664062	-506.738281
4331.125430	2.263840	55.664062	-506.738281
4331.127429	2.502572	55.664062	-506.738281
4331.131427	2.541955	55.664062	-506.738281
4331.133429	2.538647	27.925121	0.049049
4332.155396	0.847155	191.210937	86.718750
4332.157397	1.241242	191.210937	86.718750
4332.159397	1.533453	191.210937	86.718750
4332.163396	2.084234	191.210937	86.718750
4332.165398	2.343959	191.210937	86.718750
4332.167397	2.538684	191.210937	86.718750
4332.169396	2.545723	191.210937	86.718750
4332.171398	2.541090	27.951992	0.109899
4333.195416	1.567643	51.074219	-511.328125
4333.197417	0.698017	51.074219	-511.328125
4333.199417	1.022487	51.074219	-511.328125
4333.201416	1.323799	51.074219	-511.328125
4333.203415	1.614324	51.074219	-511.328125
4333.205416	1.894186	51.074219	-511.328125
4333.207416	2.156768	51.074219	-511.328125
4333.209415	2.416254	51.074219	-511.328125
4333.211418	2.550052	51.074219	-511.328125
4333.213416	2.544474	27.989216	0.050627
4334.238036	0.864436	191.503906	87.207031
4334.240036	1.214260	191.503906	87.207031
4334.242036	1.507070	191.503906	87.207031
4334.244036	1.791690	191.503906	87.207031
4334.246035	2.060626	191.503906	87.207031
4334.248037	2.320359	191.503906	87.207031
4334.250036	2.530692	191.503906	87.207031
4334.252036	2.546334	191.503906	87.207031
4334.256035	2.538367	27.922037	0.040333
4335.278070	0.331857	49.023437	-513.867187
4335.280072	0.670821	49.023437	-513.867187
4335.282074	0.996791	49.023437	-513.867187
4335.284073	1.300056	49.023437	-513.867187
4335.286073	1.591078	49.023437	-513.867187
4335.288072	1.871912	49.023437	-513.867187
4335.290072	2.135804	49.023437	-513.867187
4335.294079	2.548994	49.023437	-513.867187
4335.296080	2.549327	49.023437	-513.867187
4335.302079	2.535682	27.892498	0.051680
4336.320067	0.777496	206.347656	90.625000
4336.322068	1.097518	206.347656	90.625000
4336.324069	1.393670	206.347656	90.625000
4336.326067	1.682746	206.347656	90.625000
4336.328069	1.958895	206.347656	90.625000
4336.330068	2.219170	206.347656	90.625000
4336.332068	2.472288	206.347656	90.625000
4336.334068	2.551454	206.347656	90.625000
4336.336074	2.545452	27.999973	0.041634
4337.362954	0.597121	41.113281	-521.777344
4337.364957	0.926895	41.113281	-521.777344
4337.366959	1.235640	41.113281	-521.777344
4337.368958	1.528010	41.113281	-521.777344
4337.370959	1.811638	41.113281	-521.777344
4337.372958	2.079331	41.113281	-521.777344
4337.374959	2.339088	41.113281	-521.777344
4337.376957	2.537104	41.113281	-521.777344
4337.378957	2.545821	41.113281	-521.777344
4337.380958	2.541039	27.951435	0.083552
4338.401003	0.462855	199.121094	88.867187
4338.403006	0.797027	199.121094	88.867187
4338.405006	1.115562	199.121094	88.867187
4338.407006	1.411141	199.121094	88.867187
4338.409005	1.699489	199.121094	88.867187
4338.411005	1.974522	199.121094	88.867187
4338.413004	2.234692	199.121094	88.867187
4338.415006	2.483281	199.121094	88.867187
4338.417006	2.548581	199.121094	88.867187
4338.419005	2.542666	27.969328	0.041794
4339.445012	0.468098	38.671875	-524.121094
4339.447014	0.802125	38.671875	-524.121094
4339.449013	1.120291	38.671875	-524.121094
4339.451014	1.415761	38.671875	-524.121094
4339.453015	1.703930	38.671875	-524.121094
4339.455014	1.978676	38.671875	-524.121094
4339.457014	2.238797	38.671875	-524.121094
4339.459013	2.486252	38.671875	-524.121094
4339.461016	2.548535	38.671875	-524.121094
4339.463014	2.542624	27.968866	0.052688
4340.483008	0.323427	196.191406	87.988281
4340.485012	0.662703	196.191406	87.988281
4340.487010	0.675098	196.191406	87.988281
4340.489010	1.292960	196.191406	87.988281
4340.491012	1.584164	196.191406	87.988281
4340.493010	1.865286	196.191406	87.988281
4340.495010	2.129601	196.191406	87.988281
4340.499012	2.548458	196.191406	87.988281
4340.501020	2.545161	196.191406	87.988281
4340.503022	2.540801	27.948811	0.043569
4341.529052	0.589131	51.074219	-512.109375
4341.531054	0.919305	51.074219	-512.109375
4341.533052	1.228527	51.074219	-512.109375
4341.535054	1.521000	51.074219	-512.109375
4341.537053	1.805001	51.074219	-512.109375
4341.539054	2.073076	51.074219	-512.109375
4341.541053	2.332835	51.074219	-512.109375
4341.543052	2.534949	51.074219	-512.109375
4341.545052	2.545691	51.074219	-512.109375
4341.547053	2.540934	27.950272	0.053325
4342.569651	0.878103	199.804687	89.160156
4342.571652	1.190450	199.804687	89.160156
4342.573653	1.483842	199.804687	89.160156
4342.575655	1.769279	199.804687	89.160156
4342.577654	2.039686	199.804687	89.160156
4342.579657	2.299395	199.804687	89.160156
4342.581664	2.521600	199.804687	89.160156
4342.583668	2.546224	199.804687	89.160156
4342.585669	2.541236	27.953598	0.040525
4343.613660	0.803070	51.464844	-511.523437
4343.615661	1.121152	51.464844	-511.523437
4343.617661	1.416597	51.464844	-511.523437
4343.619662	1.704649	51.464844	-511.523437
4343.621660	1.979291	51.464844	-511.523437
4343.623661	2.239404	51.464844	-511.523437
4343.625661	2.486613	51.464844	-511.523437
4343.627660	2.548196	51.464844	-511.523437
4343.629661	2.542323	27.965551	0.048985
4344.650255	0.513696	204.199219	90.039062
4344.652260	0.846332	204.199219	90.039062
4344.654258	1.161199	204.199219	90.039062
4344.656259	1.455368	204.199219	90.039062
4344.658259	1.741938	204.199219	90.039062
4344.660259	2.014098	204.199219	90.039062
4344.662259	2.274046	204.199219	90.039062
4344.664259	2.508563	204.199219	90.039062
4344.666261	2.547244	204.199219	90.039062
4344.668266	2.541950	27.961447	0.043371
4345.694813	0.526723	54.882812	-508.105469
4345.696814	0.858951	54.882812	-508.105469
4345.698815	1.172867	54.882812	-508.105469
4345.700814	1.466730	54.882812	-508.105469
4345.702815	1.752876	54.882812	-508.105469
4345.704814	2.024341	54.882812	-508.105469
4345.706814	2.284272	54.882812	-508.105469
4345.708814	2.513963	54.882812	-508.105469
4345.710814	2.546689	54.882812	-508.105469
4345.712815	2.541420	27.955618	0.048321
4346.732770	0.462980	204.980469	90.429687
4346.734773	0.797172	204.980469	90.429687
4346.736775	1.115758	204.980469	90.429687
4346.738774	1.411269	204.980469	90.429687
4346.740775	1.699649	204.980469	90.429687
4346.742778	1.974651	204.980469	90.429687
4346.744774	2.235021	204.980469	90.429687
4346.746775	2.483950	204.980469	90.429687
4346.748775	2.550052	204.980469	90.429687
4346.750776	2.544227	27.986492	0.045494
4347.777333	0.477388	42.089844	-520.898437
4347.779336	0.811176	42.089844	-520.898437
4347.781336	1.128688	42.089844	-520.898437
4347.785334	1.711725	42.089844	-520.898437
4347.787335	1.985975	42.089844	-520.898437
4347.789337	2.246037	42.089844	-520.898437
4347.791335	2.491130	42.089844	-520.898437
4347.793336	2.548086	42.089844	-520.898437
4347.795336	2.542349	27.965836	0.049746
4348.815331	1.225391	200.683594	89.648437
4348.817333	0.755385	200.683594	89.648437
4348.819335	1.076828	200.683594	89.648437
4348.821333	1.373980	200.683594	89.648437
4348.823333	1.663534	200.683594	89.648437
4348.825332	1.940962	200.683594	89.648437
4348.827333	2.201419	200.683594	89.648437
4348.829334	2.457644	200.683594	89.648437
4348.831334	2.550454	200.683594	89.648437
4348.835331	2.540513	27.945639	0.041255
4349.863386	0.926731	36.816406	-525.585937
4349.867385	1.527773	36.816406	-525.585937
4349.869394	1.811459	36.816406	-525.585937
4349.871394	2.080179	36.816406	-525.585937
4349.875394	2.538070	36.816406	-525.585937
4349.877394	2.546747	36.816406	-525.585937
4349.879394	2.542022	27.962248	0.076398
4350.899450	0.639729	195.117187	87.988281
4350.901452	0.967308	195.117187	87.988281
4350.905451	1.564429	195.117187	87.988281
4350.907454	1.846439	195.117187	87.988281
4350.909454	2.111969	195.117187	87.988281
4350.911452	2.371588	195.117187	87.988281
4350.913453	2.547816	195.117187	87.988281
4350.915453	2.548453	195.117187	87.988281
4350.917453	2.543880	27.982683	0.278432
4351.943530	0.571416	52.148437	-511.035156
4351.945533	0.902361	52.148437	-511.035156
4351.949532	1.505679	52.148437	-511.035156
4351.951532	1.790369	52.148437	-511.035156
4351.953532	2.059392	52.148437	-511.035156
4351.955533	2.319043	52.148437	-511.035156
4351.957532	2.529857	52.148437	-511.035156
4351.959531	2.545719	52.148437	-511.035156
4351.961531	2.540949	27.950443	0.052501
4352.984122	0.942070	204.199219	90.039062
4352.986123	1.249540	204.199219	90.039062
4352.988122	1.541571	204.199219	90.039062
4352.990122	1.824591	204.199219	90.039062
4352.992123	2.091390	204.199219	90.039062
4352.994124	2.350949	204.199219	90.039062
4352.996123	2.540516	204.199219	90.039062
4353.000121	2.540725	204.199219	90.039062
4353.002124	2.537735	27.915083	0.156158
4354.027043	0.688817	56.445312	-506.250000
4354.029044	1.013754	56.445312	-506.250000
4354.031045	1.315727	56.445312	-506.250000
4354.033046	1.606376	56.445312	-506.250000
4354.037042	2.149598	56.445312	-506.250000
4354.039046	2.409133	56.445312	-506.250000
4354.041045	2.549201	56.445312	-506.250000
4354.045042	2.539918	27.939098	0.051653
4355.065075	0.551628	207.910156	90.820312
4355.067077	0.883171	207.910156	90.820312
4355.069076	1.195099	207.910156	90.820312
4355.071077	1.488396	207.910156	90.820312
4355.073076	1.773812	207.910156	90.820312
4355.075076	2.043744	207.910156	90.820312
4355.077078	2.303610	207.910156	90.820312
4355.079077	2.523682	207.910156	90.820312
4355.081078	2.546648	207.910156	90.820312
4355.083076	2.541656	27.958221	0.039554
4356.109094	0.559981	59.570312	-502.929687
4356.111095	0.891202	59.570312	-502.929687
4356.113096	1.202542	59.570312	-502.929687
4356.115095	1.495594	59.570312	-502.929687
4356.117098	1.780625	59.570312	-502.929687
4356.119095	2.050173	59.570312	-502.929687
4356.121096	2.309985	59.570312	-502.929687
4356.123096	2.525907	59.570312	-502.929687
4356.125099	2.545629	59.570312	-502.929687
4356.127101	2.540702	27.947720	0.050700
4357.147115	0.421042	210.449219	91.503906
4357.149117	0.756557	210.449219	91.503906
4357.151119	1.077971	210.449219	91.503906
4357.153122	1.375274	210.449219	91.503906
4357.155124	1.665686	210.449219	91.503906
4357.157125	1.942900	210.449219	91.503906
4357.159128	2.203284	210.449219	91.503906
4357.161125	2.459052	210.449219	91.503906
4357.163124	2.549930	210.449219	91.503906
4357.167122	2.540200	27.942200	0.041010
4358.193143	0.679443	56.835937	-505.761719
4358.197144	1.307434	56.835937	-505.761719
4358.199145	1.598332	56.835937	-505.761719
4358.203143	2.142308	56.835937	-505.761719
4358.205146	2.401904	56.835937	-505.761719
4358.207146	2.548896	56.835937	-505.761719
4358.209147	2.544228	27.986511	0.471187
4359.233135	1.030973	191.796875	86.621094
4359.235136	1.257746	191.796875	86.621094
4359.237136	1.549524	191.796875	86.621094
4359.239136	1.832203	191.796875	86.621094
4359.241137	2.098653	191.796875	86.621094
4359.243136	2.358129	191.796875	86.621094
4359.245136	2.542126	191.796875	86.621094
4359.247137	2.545081	191.796875	86.621094
4359.249135	2.540521	27.945728	0.202045
4360.275155	0.545334	53.906250	-509.179687
4360.277157	0.877040	53.906250	-509.179687
4360.279158	1.189470	53.906250	-509.179687
4360.281158	1.482927	53.906250	-509.179687
4360.283158	1.768421	53.906250	-509.179687
4360.285157	2.038944	53.906250	-509.179687
4360.287157	2.298711	53.906250	-509.179687
4360.289158	2.521419	53.906250	-509.179687
4360.291157	2.546819	53.906250	-509.179687
4360.295155	2.538577	27.924351	0.048909
4361.313089	0.389971	207.519531	90.625000
4361.315091	0.405517	207.519531	90.625000
4361.317091	0.736822	207.519531	90.625000
4361.319091	1.348704	207.519531	90.625000
4361.321091	1.638744	207.519531	90.625000
4361.323090	1.917515	207.519531	90.625000
4361.325090	2.178724	207.519531	90.625000
4361.327093	2.437466	207.519531	90.625000
4361.329092	2.550646	207.519531	90.625000
4361.331093	2.544456	27.989019	0.040479
4362.357076	0.393614	46.289062	-517.675781
4362.359077	0.730078	46.289062	-517.675781
4362.361077	1.052845	46.289062	-517.675781
4362.363078	1.351773	46.289062	-517.675781
4362.365078	1.362109	46.289062	-517.675781
4362.367079	1.920499	46.289062	-517.675781
4362.369077	2.181501	46.289062	-517.675781
4362.371078	2.440010	46.289062	-517.675781
4362.373079	2.550293	46.289062	-517.675781
4362.375079	2.544130	27.985432	0.051746
4363.397112	0.594025	201.367187	89.062500
4363.399113	0.923948	201.367187	89.062500
4363.403112	1.525203	201.367187	89.062500
4363.405113	1.535412	201.367187	89.062500
4363.407113	2.076797	201.367187	89.062500
4363.409114	2.336473	201.367187	89.062500
4363.413112	2.545759	201.367187	89.062500
4363.415115	2.540952	201.367187	89.062500
4363.417114	2.537968	27.917650	0.064123
4364.441133	0.603506	57.519531	-505.468750
4364.443135	0.932923	57.519531	-505.468750
4364.445134	1.241087	57.519531	-505.468750
4364.447133	1.533257	57.519531	-505.468750
4364.449135	1.816671	57.519531	-505.468750
4364.451136	2.084037	57.519531	-505.468750
4364.453135	2.343714	57.519531	-505.468750
4364.455135	2.538388	57.519531	-505.468750
4364.457135	2.545475	57.519531	-505.468750
4364.459135	2.540729	27.948023	0.052611
4365.479133	0.458588	205.371094	89.843750
4365.481137	0.792860	205.371094	89.843750
4365.483135	1.111669	205.371094	89.843750
4365.485135	1.407350	205.371094	89.843750
4365.487135	1.695817	205.371094	89.843750
4365.489136	1.971051	205.371094	89.843750
4365.491136	2.231192	205.371094	89.843750
4365.493137	2.480727	205.371094	89.843750
4365.495136	2.483968	205.371094	89.843750
4365.497136	2.542468	27.967146	0.044528
4366.523719	2.556881	40.527344	-523.828125
4366.525721	0.894870	40.527344	-523.828125
4366.527721	0.903555	40.527344	-523.828125
4366.529721	1.498920	40.527344	-523.828125
4366.531723	1.783859	40.527344	-523.828125
4366.533721	2.053183	40.527344	-523.828125
4366.535721	2.312910	40.527344	-523.828125
4366.537720	2.527665	40.527344	-523.828125
4366.539722	2.546366	40.527344	-523.828125
4366.541721	2.541404	27.955450	0.050176
4367.563768	0.679558	207.519531	90.136719
4367.565770	1.005059	207.519531	90.136719
4367.567770	1.307597	207.519531	90.136719
4367.569772	1.598509	207.519531	90.136719
4367.571772	1.878937	207.519531	90.136719
4367.573772	2.142477	207.519531	90.136719
4367.575774	2.401967	207.519531	90.136719
4367.577772	2.548899	207.519531	90.136719
4367.579772	2.544014	27.984154	0.462272
4368.605737	0.428618	40.625000	-524.316406
4368.607738	0.763864	40.625000	-524.316406
4368.609740	1.084848	40.625000	-524.316406
4368.611739	1.381455	40.625000	-524.316406
4368.613739	1.670938	40.625000	-524.316406
4368.615739	1.947802	40.625000	-524.316406
4368.617739	2.208142	40.625000	-524.316406
4368.619738	2.463174	40.625000	-524.316406
4368.621740	2.550292	40.625000	-524.316406
4368.623740	2.544157	27.985729	0.054521
4369.645740	0.452629	203.125000	89.453125
4369.649739	1.106219	203.125000	89.453125
4369.651740	1.402085	203.125000	89.453125
4369.653742	1.690651	203.125000	89.453125
4369.655741	1.966229	203.125000	89.453125
4369.657741	2.226367	203.125000	89.453125
4369.659742	2.236814	203.125000	89.453125
4369.663741	2.542730	203.125000	89.453125
4369.665742	2.539145	27.930597	0.040157
4370.690219	0.623703	38.574219	-525.781250
4370.692220	0.952082	38.574219	-525.781250
4370.694222	1.258754	38.574219	-525.781250
4370.696220	1.550636	38.574219	-525.781250
4370.698221	1.833269	38.574219	-525.781250
4370.700221	2.099602	38.574219	-525.781250
4370.702221	2.359135	38.574219	-525.781250
4370.704222	2.542559	38.574219	-525.781250
4370.708219	2.540828	38.574219	-525.781250
4370.710220	2.538015	27.918163	0.051192
4371.728273	0.405451	196.484375	87.500000
4371.730277	0.741442	196.484375	87.500000
4371.732275	1.063652	196.484375	87.500000
4371.734275	1.361712	196.484375	87.500000
4371.736275	1.651609	196.484375	87.500000
4371.740273	2.190184	196.484375	87.500000
4371.742278	2.447922	196.484375	87.500000
4371.744280	2.550071	196.484375	87.500000
4371.746279	2.544027	27.984295	0.041591
4372.772305	0.501014	39.941406	-525.488281
4372.774306	0.834052	39.941406	-525.488281
4372.776308	1.149724	39.941406	-525.488281
4372.778308	1.444333	39.941406	-525.488281
4372.782306	2.004176	39.941406	-525.488281
4372.784308	2.264125	39.941406	-525.488281
4372.786307	2.502605	39.941406	-525.488281
4372.788307	2.547295	39.941406	-525.488281
4372.790308	2.541759	27.959349	0.052204
4373.812334	0.614743	206.347656	90.136719
4373.814336	0.943628	206.347656	90.136719
4373.816334	1.250918	206.347656	90.136719
4373.818336	1.542868	206.347656	90.136719
4373.820336	1.825710	206.347656	90.136719
4373.822334	2.092486	206.347656	90.136719
4373.824335	2.352096	206.347656	90.136719
4373.826335	2.540458	206.347656	90.136719
4373.828334	2.544978	206.347656	90.136719
4373.830335	2.540411	27.944521	0.166057
4374.855312	0.533147	54.199219	-509.960937
4374.857314	0.865120	54.199219	-509.960937
4374.859314	1.178526	54.199219	-509.960937
4374.861314	1.472174	54.199219	-509.960937
4374.863315	1.758085	54.199219	-509.960937
4374.865314	2.029103	54.199219	-509.960937
4374.867316	2.288981	54.199219	-509.960937
4374.869315	2.516232	54.199219	-509.960937
4374.871313	2.546160	54.199219	-509.960937
4374.873314	2.541110	27.952213	0.052637
4375.895276	0.550231	208.984375	90.722656
4375.897278	0.881774	208.984375	90.722656
4375.899278	1.193821	208.984375	90.722656
4375.901277	1.487124	208.984375	90.722656
4375.903279	1.772491	208.984375	90.722656
4375.907275	2.302436	208.984375	90.722656
4375.909277	2.523102	208.984375	90.722656
4375.911279	2.546606	208.984375	90.722656
4375.913277	2.541492	27.956415	0.039678
4376.937299	0.394792	42.285156	-524.121094
4376.941299	1.053955	42.285156	-524.121094
4376.943301	1.352849	42.285156	-524.121094
4376.945303	1.642802	42.285156	-524.121094
4376.947301	1.921357	42.285156	-524.121094
4376.949304	2.182436	42.285156	-524.121094
4376.953303	2.550645	42.285156	-524.121094
4376.955303	2.544374	42.285156	-524.121094
4376.957304	2.540587	27.946461	0.051328
4377.977331	0.422237	197.167969	87.988281
4377.979334	0.757729	197.167969	87.988281
4377.981334	1.079022	197.167969	87.988281
4377.983336	1.375937	197.167969	87.988281
4377.985336	1.665835	197.167969	87.988281
4377.987339	1.943017	197.167969	87.988281
4377.991337	2.459567	197.167969	87.988281
4377.993340	2.548986	197.167969	87.988281
4377.995340	2.542760	27.970356	0.041958
4379.021399	0.697471	50.878906	-514.550781
4379.023401	1.021962	50.878906	-514.550781
4379.025401	1.323268	50.878906	-514.550781
4379.027401	1.613730	50.878906	-514.550781
4379.029401	1.893605	50.878906	-514.550781
4379.031401	2.156254	50.878906	-514.550781
4379.033404	2.415794	50.878906	-514.550781
4379.035402	2.549593	50.878906	-514.550781
4379.037401	2.543887	27.982754	0.052463
4380.059479	0.304874	201.660156	89.062500
4380.061480	0.644846	201.660156	89.062500
4380.063480	0.972030	201.660156	89.062500
4380.065482	1.277138	201.660156	89.062500
4380.067481	1.568584	201.660156	89.062500
4380.069480	1.850423	201.660156	89.062500
4380.071481	2.115618	201.660156	89.062500
4380.073482	2.375131	201.660156	89.062500
4380.075480	2.545517	201.660156	89.062500
4380.077481	2.544573	201.660156	89.062500
4380.079480	2.540109	27.941198	0.043280
4381.103567	0.588578	48.144531	-517.675781
4381.105569	0.918698	48.144531	-517.675781
4381.107568	1.227903	48.144531	-517.675781
4381.109567	1.243736	48.144531	-517.675781
4381.111570	1.529363	48.144531	-517.675781
4381.113569	2.072425	48.144531	-517.675781
4381.115567	2.331960	48.144531	-517.675781
4381.117568	2.534698	48.144531	-517.675781
4381.119569	2.545915	48.144531	-517.675781
4381.121568	2.541171	27.952879	0.050841
4382.143573	0.351323	205.566406	89.648437
4382.145576	0.689342	205.566406	89.648437
4382.147575	1.014308	205.566406	89.648437
4382.149577	1.316216	205.566406	89.648437
4382.151576	1.606849	205.566406	89.648437
4382.153575	1.887040	205.566406	89.648437
4382.155575	2.150055	205.566406	89.648437
4382.157575	2.409572	205.566406	89.648437
4382.159575	2.549348	205.566406	89.648437
4382.161577	2.544057	27.984631	0.040904
4383.188122	0.789334	49.316406	-515.722656
4383.190124	1.108432	49.316406	-515.722656
4383.192124	1.404121	49.316406	-515.722656
4383.194125	1.692736	49.316406	-515.722656
4383.196124	1.968171	49.316406	-515.722656
4383.198125	2.228351	49.316406	-515.722656
4383.200124	2.478599	49.316406	-515.722656
4383.202125	2.548601	49.316406	-515.722656
4383.204126	2.542584	27.968424	0.051622
4384.226162	0.308547	206.542969	90.136719
4384.228165	0.648330	206.542969	90.136719
4384.230165	0.975393	206.542969	90.136719
4384.232164	1.280228	206.542969	90.136719
4384.234164	1.571607	206.542969	90.136719
4384.236166	1.853193	206.542969	90.136719
4384.238164	2.118297	206.542969	90.136719
4384.240166	2.377784	206.542969	90.136719
4384.244163	2.544260	206.542969	90.136719
4384.246163	2.539937	206.542969	90.136719
4384.248165	2.537060	27.907656	0.044703
4385.270145	0.658948	55.957031	-509.179687
4385.272147	0.985485	55.957031	-509.179687
4385.274148	1.289557	55.957031	-509.179687
4385.276148	1.580839	55.957031	-509.179687
4385.278147	1.862091	55.957031	-509.179687
4385.280146	2.126637	55.957031	-509.179687
4385.282147	2.386196	55.957031	-509.179687
4385.284148	2.547673	55.957031	-509.179687
4385.286147	2.544978	55.957031	-509.179687
4385.288148	2.540695	27.947641	0.375333
4386.310149	0.510222	194.238281	86.914062
4386.312149	0.842915	194.238281	86.914062
4386.314151	1.157931	194.238281	86.914062
4386.316149	1.452212	194.238281	86.914062
4386.318150	1.738945	194.238281	86.914062
4386.322158	2.272279	194.238281	86.914062
4386.324158	2.507348	194.238281	86.914062
4386.326158	2.546860	194.238281	86.914062
4386.328158	2.541497	27.956467	0.043088
4387.352166	0.439621	39.648437	-526.367187
4387.354165	0.774472	39.648437	-526.367187
4387.358165	1.390927	39.648437	-526.367187
4387.360166	1.679986	39.648437	-526.367187
4387.362168	1.956285	39.648437	-526.367187
4387.364166	2.216546	39.648437	-526.367187
4387.366167	2.469758	39.648437	-526.367187
4387.368168	2.549363	39.648437	-526.367187
4387.370166	2.543266	27.975929	0.050532
4388.394149	0.623927	208.398437	90.234375
4388.396152	0.952185	208.398437	90.234375
4388.398151	1.258824	208.398437	90.234375
4388.400153	1.550615	208.398437	90.234375
4388.402153	1.833216	208.398437	90.234375
4388.404151	2.099453	208.398437	90.234375
4388.406152	2.359089	208.398437	90.234375
4388.408152	2.542180	208.398437	90.234375
4388.410153	2.544806	208.398437	90.234375
4388.412152	2.540212	27.942333	0.040587
4389.434210	0.306695	56.738281	-508.398437
4389.436209	0.646594	56.738281	-508.398437
4389.438210	0.973714	56.738281	-508.398437
4389.440210	1.278656	56.738281	-508.398437
4389.444208	1.851863	56.738281	-508.398437
4389.446210	2.116965	56.738281	-508.398437
4389.448211	2.376462	56.738281	-508.398437
4389.450210	2.545638	56.738281	-508.398437
4389.452210	2.544385	56.738281	-508.398437
4389.454210	2.539995	27.939949	0.055186
4390.476251	0.503759	207.421875	90.332031
4390.478251	0.836702	207.421875	90.332031
4390.480251	1.152227	207.421875	90.332031
4390.482252	1.446613	207.421875	90.332031
4390.484251	1.733512	207.421875	90.332031
4390.488250	2.266321	207.421875	90.332031
4390.494251	2.541584	207.421875	90.332031
4390.496251	2.538268	207.421875	90.332031
4390.500254	2.533938	27.873322	0.042758
4391.518202	0.594537	51.367187	-514.843750
4391.520204	0.924308	51.367187	-514.843750
4391.522204	1.233036	51.367187	-514.843750
4391.524205	1.525420	51.367187	-514.843750
4391.526203	1.809103	51.367187	-514.843750
4391.528204	2.076792	51.367187	-514.843750
4391.530203	2.336493	51.367187	-514.843750
4391.532204	2.535636	51.367187	-514.843750
4391.534204	2.544850	51.367187	-514.843750
4391.536204	2.540240	27.942642	0.066890
4392.558795	0.458242	192.675781	86.718750
4392.560796	0.792540	192.675781	86.718750
4392.562797	1.111416	192.675781	86.718750
4392.564798	1.406990	192.675781	86.718750
4392.566797	1.695593	192.675781	86.718750
4392.568796	1.970833	192.675781	86.718750
4392.570797	2.230915	192.675781	86.718750
4392.572797	2.480603	192.675781	86.718750
4392.576799	2.542623	192.675781	86.718750
4392.578796	2.539070	27.929766	0.042846
4393.600856	0.394854	54.003906	-511.523437
4393.604859	1.054142	54.003906	-511.523437
4393.606858	1.352948	54.003906	-511.523437
4393.608864	1.377083	54.003906	-511.523437
4393.610862	1.921940	54.003906	-511.523437
4393.612862	2.182912	54.003906	-511.523437
4393.614862	2.441164	54.003906	-511.523437
4393.616861	2.550169	54.003906	-511.523437
4393.618863	2.544019	27.984207	0.048414
4394.641774	0.483712	195.019531	87.207031
4394.643775	0.817186	195.019531	87.207031
4394.645775	0.829774	195.019531	87.207031
4394.647776	1.429163	195.019531	87.207031
4394.649774	1.716769	195.019531	87.207031
4394.651774	1.990659	195.019531	87.207031
4394.655772	2.494235	195.019531	87.207031
4394.657774	2.547998	195.019531	87.207031
4394.659774	2.542335	27.965685	0.042338
4395.685847	0.843832	50.000000	-516.015625
4395.687849	1.158794	50.000000	-516.015625
4395.689849	1.453053	50.000000	-516.015625
4395.691848	1.739645	50.000000	-516.015625
4395.693849	2.011970	50.000000	-516.015625
4395.695849	2.271917	50.000000	-516.015625
4395.697849	2.507173	50.000000	-516.015625
4395.699850	2.547287	50.000000	-516.015625
4395.701850	2.541847	27.960321	0.048379
4396.724418	0.369038	208.007812	90.234375
4396.726420	0.706319	208.007812	90.234375
4396.728421	1.030369	208.007812	90.234375
4396.730420	1.331020	208.007812	90.234375
4396.732421	1.621357	208.007812	90.234375
4396.734420	1.900822	208.007812	90.234375
4396.736421	2.163016	208.007812	90.234375
4396.738421	2.422386	208.007812	90.234375
4396.740420	2.549639	208.007812	90.234375
4396.742420	2.543805	27.981859	0.041841
4397.766380	0.376425	42.480469	-524.511719
4397.768382	0.713387	42.480469	-524.511719
4397.770381	1.037040	42.480469	-524.511719
4397.772380	1.337220	42.480469	-524.511719
4397.774381	1.627476	42.480469	-524.511719
4397.776381	1.906693	42.480469	-524.511719
4397.778382	2.168532	42.480469	-524.511719
4397.780381	2.427658	42.480469	-524.511719
4397.782381	2.549423	42.480469	-524.511719
4397.784381	2.543409	27.977497	0.049954
4398.808462	0.576097	205.957031	89.843750
4398.810465	0.906760	205.957031	89.843750
4398.812464	1.217027	205.957031	89.843750
4398.814466	1.509610	205.957031	89.843750
4398.816466	1.794052	205.957031	89.843750
4398.820462	2.322458	205.957031	89.843750
4398.822464	2.530902	205.957031	89.843750
4398.824465	2.545365	205.957031	89.843750
4398.826465	2.540559	27.946144	0.043535
4399.849011	0.344570	57.324219	-507.812500
4399.851012	0.682853	57.324219	-507.812500
4399.853013	1.008099	57.324219	-507.812500
4399.855012	1.310455	57.324219	-507.812500
4399.857011	1.601197	57.324219	-507.812500
4399.859011	1.881591	57.324219	-507.812500
4399.861012	2.144919	57.324219	-507.812500
4399.863012	2.404463	57.324219	-507.812500
4399.865012	2.548718	57.324219	-507.812500
4399.867013	2.543792	27.981718	0.050324
4400.892965	0.856575	193.261719	86.718750
4400.894967	1.170605	193.261719	86.718750
4400.896967	1.464572	193.261719	86.718750
4400.898969	1.750802	193.261719	86.718750
4400.900969	2.022305	193.261719	86.718750
4400.902967	2.282200	193.261719	86.718750
4400.904967	2.512799	193.261719	86.718750
4400.906968	2.546596	193.261719	86.718750
4400.908967	2.541333	27.954660	0.040704
4401.936988	1.185871	53.027344	-513.769531
4401.938991	1.479351	53.027344	-513.769531
4401.940990	1.764934	53.027344	-513.769531
4401.942990	2.035513	53.027344	-513.769531
4401.944991	2.295397	53.027344	-513.769531
4401.948989	2.546338	53.027344	-513.769531
4401.950992	2.541243	53.027344	-513.769531
4401.952991	2.537978	27.917757	0.052572
4402.972943	0.382504	195.703125	86.816406
4402.974943	0.719255	195.703125	86.816406
4402.976944	1.042590	195.703125	86.816406
4402.978942	1.342236	195.703125	86.816406
4402.980943	1.632414	195.703125	86.816406
4402.982944	1.911411	195.703125	86.816406
4402.984943	1.920944	195.703125	86.816406
4402.986944	2.431862	195.703125	86.816406
4402.988944	2.549806	195.703125	86.816406
4402.990943	2.543698	27.980679	0.042423
4404.019010	0.902540	36.523437	-530.859375
4404.021008	1.212980	36.523437	-530.859375
4404.023009	1.505822	36.523437	-530.859375
4404.025011	1.790523	36.523437	-530.859375
4404.027009	2.059480	36.523437	-530.859375
4404.029009	2.319043	36.523437	-530.859375
4404.031010	2.529866	36.523437	-530.859375
4404.033010	2.545775	36.523437	-530.859375
4404.035009	2.540944	27.950388	0.047215
4405.057025	0.510863	200.488281	88.378906
4405.059027	0.843512	200.488281	88.378906
4405.061028	1.158536	200.488281	88.378906
4405.063027	1.452740	200.488281	88.378906
4405.065029	1.739441	200.488281	88.378906
4405.067027	2.011775	200.488281	88.378906
4405.069028	2.271722	200.488281	88.378906
4405.071028	2.507090	200.488281	88.378906
4405.073029	2.547192	200.488281	88.378906
4405.077027	2.538410	27.922506	0.040075
4406.101022	0.855642	57.128906	-509.472656
4406.103023	1.169670	57.128906	-509.472656
4406.105023	1.463583	57.128906	-509.472656
4406.107023	1.749753	57.128906	-509.472656
4406.109024	2.021412	57.128906	-509.472656
4406.111022	2.281220	57.128906	-509.472656
4406.113022	2.291963	57.128906	-509.472656
4406.115024	2.546318	57.128906	-509.472656
4406.117024	2.541118	27.952303	0.049379
4407.139057	1.010296	209.667969	90.722656
4407.141060	0.796410	209.667969	90.722656
4407.143059	1.114909	209.667969	90.722656
4407.145059	1.410458	209.667969	90.722656
4407.147060	1.698791	209.667969	90.722656
4407.149059	1.973837	209.667969	90.722656
4407.151058	2.233937	209.667969	90.722656
4407.153059	2.482929	209.667969	90.722656
4407.155059	2.549341	209.667969	90.722656
4407.157059	2.543549	27.979040	0.045208
4408.180985	0.287223	42.480469	-525.390625
4408.182986	0.628072	42.480469	-525.390625
4408.184986	0.956110	42.480469	-525.390625
4408.186986	1.262601	42.480469	-525.390625
4408.188991	1.554275	42.480469	-525.390625
4408.190986	1.836733	42.480469	-525.390625
4408.192987	2.102828	42.480469	-525.390625
4408.194987	2.362420	42.480469	-525.390625
4408.196985	2.542961	42.480469	-525.390625
4408.198985	2.544779	42.480469	-525.390625
4408.200986	2.540225	27.942474	0.051649
4409.222963	0.645115	198.046875	87.207031
4409.224966	0.972395	198.046875	87.207031
4409.226964	1.277585	198.046875	87.207031
4409.228964	1.290970	198.046875	87.207031
4409.230964	1.850719	198.046875	87.207031
4409.232963	2.115981	198.046875	87.207031
4409.234964	2.375465	198.046875	87.207031
4409.236964	2.546055	198.046875	87.207031
4409.238964	2.545100	198.046875	87.207031
4409.240965	2.540616	27.946774	0.043136
4410.265017	0.409942	52.734375	-514.160156
4410.267020	0.745676	52.734375	-514.160156
4410.269020	1.067615	52.734375	-514.160156
4410.271019	1.365335	52.734375	-514.160156
4410.273018	1.655118	52.734375	-514.160156
4410.275021	1.932993	52.734375	-514.160156
4410.277020	2.193482	52.734375	-514.160156
4410.279019	2.450725	52.734375	-514.160156
4410.281020	2.550160	52.734375	-514.160156
4410.283020	2.544151	27.985659	0.054071
4411.305561	0.523433	205.468750	89.746094
4411.307563	0.855640	205.468750	89.746094
4411.309562	1.169682	205.468750	89.746094
4411.311563	1.463643	205.468750	89.746094
4411.313562	1.749773	205.468750	89.746094
4411.315562	2.021385	205.468750	89.746094
4411.317563	2.281317	205.468750	89.746094
4411.319563	2.512240	205.468750	89.746094
4411.321562	2.546358	205.468750	89.746094
4411.323565	2.541072	27.951788	0.039855
4412.348139	0.462205	38.574219	-529.492187
4412.350141	0.796315	38.574219	-529.492187
4412.352141	1.114829	38.574219	-529.492187
4412.354141	1.410327	38.574219	-529.492187
4412.356142	1.698618	38.574219	-529.492187
4412.358141	1.973721	38.574219	-529.492187
4412.360141	2.233754	38.574219	-529.492187
4412.364143	2.548716	38.574219	-529.492187
4412.368144	2.539257	38.574219	-529.492187
4412.370145	2.536773	27.904499	0.052598
4413.388200	0.495068	196.484375	87.304687
4413.390203	0.828224	196.484375	87.304687
4413.392204	1.144389	196.484375	87.304687
4413.394203	1.439090	196.484375	87.304687
4413.396203	1.726194	196.484375	87.304687
4413.398206	1.999444	196.484375	87.304687
4413.400210	2.259651	196.484375	87.304687
4413.402214	2.500664	196.484375	87.304687
4413.404214	2.547530	196.484375	87.304687
4413.406216	2.541933	27.961264	0.041718
4414.434247	1.005178	49.804687	-518.359375
4414.436249	1.307682	49.804687	-518.359375
4414.438250	1.598497	49.804687	-518.359375
4414.442249	2.142481	49.804687	-518.359375
4414.444249	2.401912	49.804687	-518.359375
4414.446251	2.548970	49.804687	-518.359375
4414.448250	2.544259	27.986847	0.470304
4415.470810	0.546447	207.910156	90.234375
4415.472813	0.877970	207.910156	90.234375
4415.474812	1.190326	207.910156	90.234375
4415.476811	1.483689	207.910156	90.234375
4415.478813	1.769133	207.910156	90.234375
4415.480812	2.039439	207.910156	90.234375
4415.482812	2.299235	207.910156	90.234375
4415.484812	2.521316	207.910156	90.234375
4415.486812	2.546173	207.910156	90.234375
4415.488811	2.541097	27.952072	0.040764
4416.516813	0.882597	36.914062	-530.761719
4416.518813	1.194537	36.914062	-530.761719
4416.520812	1.487811	36.914062	-530.761719
4416.522813	1.773112	36.914062	-530.761719
4416.524813	2.043217	36.914062	-530.761719
4416.526814	2.302928	36.914062	-530.761719
4416.530811	2.545740	36.914062	-530.761719
4416.532812	2.540803	36.914062	-530.761719
4416.534812	2.537561	27.913168	0.049948
4417.552903	0.425329	197.949219	87.402344
4417.554906	0.760654	197.949219	87.402344
4417.556906	0.772158	197.949219	87.402344
4417.558906	1.378490	197.949219	87.402344
4417.560906	1.667970	197.949219	87.402344
4417.562905	1.945104	197.949219	87.402344
4417.566905	2.460649	197.949219	87.402344
4417.570906	2.542465	197.949219	87.402344
4417.572907	2.538788	27.926664	0.042709
4418.596932	0.432488	53.515625	-514.257812
4418.598932	0.767501	53.515625	-514.257812
4418.600931	1.088206	53.515625	-514.257812
4418.602931	1.384501	53.515625	-514.257812
4418.604933	1.673879	53.515625	-514.257812
4418.606931	1.950539	53.515625	-514.257812
4418.608931	2.210819	53.515625	-514.257812
4418.610931	2.465235	53.515625	-514.257812
4418.612931	2.549807	53.515625	-514.257812
4418.614932	2.543669	27.980362	0.054306
4419.637514	0.640708	205.664062	89.355469
4419.639515	0.968096	205.664062	89.355469
4419.641515	1.273483	205.664062	89.355469
4419.643513	1.564948	205.664062	89.355469
4419.645515	1.846883	205.664062	89.355469
4419.647517	2.112285	205.664062	89.355469
4419.649515	2.371784	205.664062	89.355469
4419.651514	2.545166	205.664062	89.355469
4419.653516	2.545083	205.664062	89.355469
4419.655514	2.544890	27.993786	0.279020
4420.682565	0.903109	37.304687	-530.371094
4420.684568	1.213449	37.304687	-530.371094
4420.686565	1.224634	37.304687	-530.371094
4420.688565	1.790876	37.304687	-530.371094
4420.690565	2.059824	37.304687	-530.371094
4420.692566	2.319471	37.304687	-530.371094
4420.694567	2.529703	37.304687	-530.371094
4420.696567	2.545271	37.304687	-530.371094
4420.698564	2.540455	27.945002	0.050442
4421.718546	0.338038	203.222656	88.867187
4421.720547	0.676490	203.222656	88.867187
4421.722547	1.002026	203.222656	88.867187
4421.724549	1.304720	203.222656	88.867187
4421.726549	1.595611	203.222656	88.867187
4421.728548	1.876146	203.222656	88.867187
4421.730548	2.139761	203.222656	88.867187
4421.732550	2.399317	203.222656	88.867187
4421.734549	2.548159	203.222656	88.867187
4421.736547	2.543634	27.979979	0.042645
4422.762600	0.354991	45.703125	-522.363281
4422.764602	0.692774	45.703125	-522.363281
4422.766602	1.017452	45.703125	-522.363281
4422.768601	1.319045	45.703125	-522.363281
4422.770601	1.609602	45.703125	-522.363281
4422.772601	1.889607	45.703125	-522.363281
4422.776599	2.411987	45.703125	-522.363281
4422.778603	2.549410	45.703125	-522.363281
4422.780604	2.549393	28.043320	0.053233
4423.802617	0.552909	206.347656	89.746094
4423.804624	0.884272	206.347656	89.746094
4423.806619	1.196154	206.347656	89.746094
4423.808625	1.487879	206.347656	89.746094
4423.810624	1.773519	206.347656	89.746094
4423.812626	2.043536	206.347656	89.746094
4423.814624	2.303357	206.347656	89.746094
4423.816626	2.314140	206.347656	89.746094
4423.818624	2.545865	206.347656	89.746094
4423.820624	2.540827	27.949095	0.044105
4424.845164	0.307699	42.285156	-526.757812
4424.847165	0.647494	42.285156	-526.757812
4424.849166	0.974539	42.285156	-526.757812
4424.851166	1.279510	42.285156	-526.757812
4424.853166	1.570887	42.285156	-526.757812
4424.855164	1.852492	42.285156	-526.757812
4424.857164	2.117623	42.285156	-526.757812
4424.859165	2.377172	42.285156	-526.757812
4424.861165	2.546072	42.285156	-526.757812
4424.863164	2.544777	42.285156	-526.757812
4424.865165	2.540409	27.944502	0.054408
4425.887195	0.843521	204.882812	88.964844
4425.889198	1.158549	204.882812	88.964844
4425.891196	1.452785	204.882812	88.964844
4425.893197	1.739416	204.882812	88.964844
4425.895201	2.011687	204.882812	88.964844
4425.897203	2.271579	204.882812	88.964844
4425.899208	2.507762	204.882812	88.964844
4425.901207	2.547125	204.882812	88.964844
4425.903207	2.541698	27.958675	0.040098
4426.929731	0.519993	55.371094	-512.011719
4426.931732	0.537128	55.371094	-512.011719
4426.933731	1.166586	55.371094	-512.011719
4426.935732	1.460603	55.371094	-512.011719
4426.937732	1.746904	55.371094	-512.011719
4426.939730	2.018718	55.371094	-512.011719
4426.941731	2.278666	55.371094	-512.011719
4426.943731	2.510833	55.371094	-512.011719
4426.945732	2.546420	55.371094	-512.011719
4426.947732	2.541137	27.952507	0.049691
4427.967705	0.459458	208.789062	89.746094
4427.969706	0.473440	208.789062	89.746094
4427.971706	1.112377	208.789062	89.746094
4427.973707	1.407987	208.789062	89.746094
4427.975706	1.696368	208.789062	89.746094
4427.977707	1.971570	208.789062	89.746094
4427.981710	2.480940	208.789062	89.746094
4427.983716	2.548011	208.789062	89.746094
4427.985718	2.542012	27.962132	0.044271
4429.011699	0.286119	40.820312	-528.515625
4429.013701	0.626783	40.820312	-528.515625
4429.015700	0.954908	40.820312	-528.515625
4429.017701	1.261269	40.820312	-528.515625
4429.019703	1.553045	40.820312	-528.515625
4429.023699	2.101613	40.820312	-528.515625
4429.025701	2.361094	40.820312	-528.515625
4429.027701	2.543347	40.820312	-528.515625
4429.029701	2.544429	40.820312	-528.515625
4429.031699	2.541201	27.953207	0.054839
4430.051702	0.570753	200.292969	87.695312
4430.053704	0.901534	200.292969	87.695312
4430.055704	1.212009	200.292969	87.695312
4430.057704	1.504750	200.292969	87.695312
4430.059705	1.789484	200.292969	87.695312
4430.061705	2.058316	200.292969	87.695312
4430.063703	2.318069	200.292969	87.695312
4430.065704	2.529148	200.292969	87.695312
4430.067704	2.545053	200.292969	87.695312
4430.069704	2.540324	27.943563	0.038289
4431.095725	1.979306	37.890625	-531.347656
4431.097728	0.826495	37.890625	-531.347656
4431.099727	1.142751	37.890625	-531.347656
4431.101728	1.437428	37.890625	-531.347656
4431.103728	1.724651	37.890625	-531.347656
4431.105728	1.997953	37.890625	-531.347656
4431.107726	2.257936	37.890625	-531.347656
4431.109729	2.498529	37.890625	-531.347656
4431.111727	2.546946	37.890625	-531.347656
4431.115725	2.538062	27.918678	0.053074
4432.133734	0.439656	199.218750	87.597656
4432.135736	0.774435	199.218750	87.597656
4432.137737	1.094595	199.218750	87.597656
4432.139737	1.390675	199.218750	87.597656
4432.141737	1.679765	199.218750	87.597656
4432.143737	1.956077	199.218750	87.597656
4432.145739	2.216371	199.218750	87.597656
4432.147744	2.469633	199.218750	87.597656
4432.149750	2.548639	199.218750	87.597656
4432.151752	2.542586	27.968449	0.041695
