time (s)	energy (uJ)	charge (mC)	voltage (mV)	crossing#mod 255
1810.911617	12.130789	0.002262	5.363162	108
1811.943682	12.534668	0.002249	5.573122	109
1812.993736	12.509271	0.002294	5.451883	110
1814.020280	12.491909	0.002259	5.529490	111
1815.072855	12.428393	0.002258	5.503836	112
1816.101425	12.443619	0.002260	5.506667	113
1817.153465	12.713384	0.002276	5.584672	114
1818.179447	12.406466	0.002259	5.492810	115
1819.231952	12.850072	0.002258	5.691489	116
1820.257882	12.373300	0.002270	5.449901	117
1821.310553	12.924748	0.002255	5.731584	118
1822.340630	12.246017	0.002274	5.385891	119
1823.390692	13.078130	0.002260	5.785641	120
1824.420509	12.112554	0.002266	5.346364	121
1825.466789	13.282857	0.002260	5.877731	122
1826.504838	12.603038	0.002275	5.539608	123
1827.542835	13.433252	0.002282	5.885382	124
1828.588884	12.273034	0.002263	5.424435	125
1829.620923	13.353452	0.002268	5.886808	126
1830.666948	12.323692	0.002260	5.452185	127
1831.699499	13.479758	0.002277	5.920124	128
1832.747554	12.480975	0.002273	5.490896	129
1833.779581	13.463671	0.002253	5.976869	130
1834.829603	12.472261	0.002251	5.540288	131
1835.857610	13.492558	0.002272	5.938990	132
1836.909583	12.578906	0.002252	5.585198	133
1837.937558	13.642771	0.002277	5.992743	134
1838.987572	12.561995	0.002266	5.543702	135
1840.019556	13.794877	0.002277	6.057152	136
1841.069547	12.673302	0.002253	5.624588	137
1842.099514	13.726365	0.002250	6.099941	138
1843.149541	12.827888	0.002256	5.685123	139
1844.178126	13.822134	0.002268	6.095353	140
1845.226159	12.815536	0.002261	5.667828	141
1846.258220	13.841249	0.002269	6.100611	142
1847.305167	12.973032	0.002272	5.709888	143
1848.337678	13.898738	0.002287	6.077615	144
1849.383698	12.835161	0.002248	5.709876	145
1850.420286	13.912080	0.002270	6.128216	146
1851.459950	12.990003	0.002263	5.739207	147
1852.506366	14.789372	0.002242	6.595299	148
1853.538383	13.164611	0.002259	5.827487	149
1854.583381	13.916668	0.002271	6.128825	150
1855.619395	13.445970	0.002269	5.925950	151
1856.663376	13.804534	0.002267	6.090210	152
1857.699395	13.492404	0.002246	6.007516	153
1858.747409	13.817744	0.002256	6.125376	154
1859.773446	13.668254	0.002268	6.027612	155
1860.827431	13.835111	0.002253	6.139659	156
1861.853428	13.737067	0.002265	6.065496	157
1862.907456	13.779129	0.002259	6.098770	158
1863.933497	13.928645	0.002253	6.183088	159
1864.985516	13.841908	0.002262	6.118781	160
1866.013503	13.974054	0.002260	6.182184	161
1867.065497	13.958786	0.002276	6.133705	162
1868.094107	14.197179	0.002278	6.230936	163
1869.142120	13.699694	0.002273	6.027155	164
1870.176616	14.332591	0.002273	6.305278	165
1871.224624	14.041590	0.002274	6.174538	166
1872.257119	14.273009	0.002262	6.311275	167
1873.303089	13.963566	0.002261	6.176043	168
1874.339162	14.543152	0.002266	6.417299	169
1875.381324	13.922294	0.002260	6.160613	170
1876.417751	14.452261	0.002261	6.393042	171
1877.458706	14.114693	0.002279	6.192976	172
1878.496738	14.759372	0.002265	6.515664	173
1879.542763	14.075074	0.002249	6.257321	174
1880.576821	14.668904	0.002280	6.435116	175
1881.620872	14.182975	0.002269	6.252011	176
1882.660883	14.730678	0.002258	6.522518	177
1883.701374	14.266878	0.002262	6.308243	178
1884.735406	14.665846	0.002275	6.447763	179
1885.779404	14.289926	0.002276	6.278553	180
1886.819457	14.728032	0.002242	6.569113	181
1887.859930	14.808355	0.002284	6.483311	182
1888.892253	14.586765	0.002257	6.462067	183
1889.938209	14.166819	0.002263	6.261498	184
1890.972346	14.820374	0.002263	6.548460	185
1892.021222	14.275495	0.002253	6.337458	186
1893.053337	14.955402	0.002275	6.572478	187
1894.101935	14.445630	0.002266	6.373918	188
1895.129943	14.884101	0.002262	6.579839	189
1896.182508	14.694935	0.002272	6.467834	190
1897.210556	14.833985	0.002263	6.555733	191
1898.263237	14.655746	0.002260	6.485980	192
1899.289255	14.805994	0.002261	6.547568	193
1900.349277	15.011258	0.002242	6.694857	194
1901.369318	14.869521	0.002274	6.539906	195
1902.421358	14.927503	0.002280	6.546728	196
1903.449351	14.766795	0.002259	6.537561	197
1904.503437	15.370563	0.002297	6.692993	198
1905.533389	14.808097	0.002246	6.592394	199
1906.581431	15.172825	0.002247	6.751038	200
1907.611787	14.735098	0.002255	6.533936	201
1908.658057	15.893246	0.002259	7.033973	202
1909.694024	14.904782	0.002274	6.554163	203
1910.736110	15.433411	0.002276	6.780437	204
1911.776131	14.815156	0.002256	6.566675	205
1912.816138	15.466168	0.002256	6.855553	206
1913.860123	14.823847	0.002245	6.602558	207
1914.892652	15.539472	0.002273	6.835362	208
1915.934404	14.884161	0.002284	6.518094	209
1916.972726	15.635088	0.002277	6.866447	210
1918.020672	14.903719	0.002245	6.638264	211
1919.053232	15.590853	0.002248	6.936818	212
1920.097258	14.982696	0.002264	6.618758	213
1921.129815	15.570356	0.002262	6.882162	214
1922.179800	15.054961	0.002249	6.693606	215
1923.210722	15.789851	0.002266	6.967771	216
1924.258774	15.299755	0.002253	6.790805	217
1925.292871	16.027416	0.002271	7.058415	218
1926.336933	15.261614	0.002271	6.719218	219
1927.370976	15.831826	0.002261	7.000612	220
1928.416971	15.239630	0.002271	6.709120	221
1929.453004	15.833735	0.002250	7.037335	222
1930.494997	15.302419	0.002282	6.704874	223
1931.529430	15.739425	0.002272	6.927232	224
1932.575434	15.556438	0.002285	6.807584	225
1933.612011	16.001034	0.002276	7.029540	226
1934.652026	15.445670	0.002261	6.830019	227
1935.691812	15.744163	0.002248	7.002820	228
1936.734037	15.742290	0.002280	6.903290	229
1937.776001	16.014896	0.002268	7.062494	230
1938.809981	15.688145	0.002276	6.893907	231
1939.859972	15.773062	0.002236	7.052873	232
1940.888495	15.738848	0.002269	6.937369	233
1941.936588	15.963796	0.002260	7.064310	234
1942.970668	15.916141	0.002248	7.080012	235
1944.016724	16.008764	0.002280	7.022764	236
1945.048711	15.925071	0.002246	7.091617	237
1946.097250	16.032907	0.002269	7.067481	238
1947.125247	16.032635	0.002261	7.091019	239
1948.179395	16.160933	0.002276	7.101113	240
1949.203224	16.072500	0.002263	7.100774	241
1950.261380	16.002235	0.002241	7.141170	242
1951.285901	16.450386	0.002277	7.225598	243
1952.338489	16.062878	0.002261	7.104617	244
1953.368554	16.381659	0.002252	7.272696	245
1954.416579	16.152462	0.002277	7.094213	246
1955.446608	16.555641	0.002273	7.285130	247
1956.499127	16.088991	0.002251	7.148925	248
1957.525178	16.547564	0.002270	7.288339	249
1958.578015	16.151371	0.002256	7.159502	250
1959.607244	16.544619	0.002253	7.344841	251
1960.657797	16.071268	0.002244	7.162288	252
1961.687773	16.665501	0.002264	7.362212	253
1962.735781	16.111992	0.002249	7.163123	254
1963.766359	16.718052	0.002260	7.396198	255
1964.816357	16.373800	0.002272	7.206630	0
1965.844881	16.742554	0.002271	7.371518	1
1966.894934	16.224352	0.002258	7.185699	2
1967.925934	16.696762	0.002251	7.418220	3
1968.973922	16.426321	0.002278	7.210985	4
1970.005923	16.773352	0.002252	7.448670	5
1971.053719	16.254601	0.002260	7.193166	6
1972.083956	16.857204	0.002283	7.383162	7
1973.136016	16.542349	0.002281	7.251115	8
1974.164000	16.826992	0.002255	7.461215	9
1975.214960	16.582895	0.002259	7.341614	10
1976.242980	16.952572	0.002268	7.475011	11
1977.295924	16.675283	0.002264	7.366821	12
1978.323971	16.936979	0.002256	7.507241	13
1979.376581	16.900814	0.002289	7.383863	14
1980.402558	16.937744	0.002267	7.471802	15
1981.454536	16.688276	0.002260	7.382938	16
1982.482587	16.864819	0.002254	7.481545	17
1983.534588	16.695982	0.002252	7.413495	18
1984.562524	16.968647	0.002273	7.465878	19
1985.615466	16.879522	0.002252	7.494728	20
1986.645903	16.765829	0.002244	7.472798	21
1987.692419	17.096531	0.002273	7.521821	22
1988.725352	17.098238	0.002276	7.510800	23
1989.771348	17.047901	0.002259	7.545321	24
1990.806318	16.840229	0.002253	7.474840	25
1991.848414	17.567406	0.002328	7.545149	26
1992.886482	16.918268	0.002258	7.492443	27
1993.928430	17.238007	0.002266	7.606666	28
1994.968974	16.865736	0.002249	7.499879	29
1996.007553	17.570925	0.002290	7.671284	30
1997.049545	16.991783	0.002258	7.525147	31
1998.088115	17.388008	0.002253	7.716220	32
1999.130622	17.058935	0.002259	7.550442	33
2000.166598	17.365005	0.002264	7.668495	34
2001.208301	16.881376	0.002246	7.514623	35
2002.245173	17.439205	0.002253	7.739883	36
2003.289186	17.371397	0.002286	7.598903	37
2004.325194	17.475208	0.002255	7.747970	38
2005.369224	17.233583	0.002271	7.587800	39
2006.407215	17.536411	0.002251	7.791515	40
2007.449687	17.257874	0.002263	7.625064	41
2008.485777	17.595324	0.002257	7.794273	42
2009.531798	17.334860	0.002255	7.686075	43
2010.564362	17.611904	0.002266	7.773238	44
2011.608854	17.367369	0.002266	7.663480	45
2012.643600	17.537176	0.002255	7.776575	46
2013.687845	17.323349	0.002253	7.689614	47
2014.725854	17.690777	0.002253	7.852833	48
2015.769854	17.464062	0.002252	7.754606	49
2016.805857	18.390053	0.002284	8.051336	50
2017.845887	17.543581	0.002264	7.749933	51
2018.885937	17.810583	0.002283	7.800090	52
2019.923742	17.435251	0.002254	7.734782	53
2020.968029	18.068636	0.002303	7.847165	54
2022.004102	19.322678	0.002275	8.494122	55
2023.047973	17.733833	0.002259	7.848912	56
2024.081693	17.677794	0.002252	7.849479	57
2025.132188	17.750170	0.002247	7.900021	58
2026.162760	19.634832	0.002271	8.647479	59
2027.210728	17.860788	0.002272	7.862082	60
2028.242740	17.977427	0.002257	7.966912	61
2029.290793	17.757542	0.002256	7.872684	62
2030.318601	17.867966	0.002257	7.916569	63
2031.370852	17.862549	0.002262	7.896836	64
2032.398937	18.102150	0.002265	7.992552	65
2033.450958	17.792439	0.002261	7.870497	66
2034.478846	17.975307	0.002253	7.977848	67
2035.531004	17.866415	0.002260	7.904212	68
2036.559963	18.257294	0.002262	8.070906	69
2037.609995	17.776279	0.002262	7.857836	70
2038.637975	18.385881	0.002277	8.075768	71
2039.689986	17.887909	0.002262	7.907242	72
2040.720006	18.444117	0.002280	8.089255	73
2041.772048	17.911961	0.002252	7.953456	74
2042.797752	18.446648	0.002284	8.077868	75
2043.850134	18.040926	0.002267	7.959759	76
2044.878167	18.542517	0.002278	8.140797	77
2045.930131	18.281439	0.002284	8.002542	78
2046.960681	18.530048	0.002251	8.233446	79
2048.012652	18.143175	0.002253	8.054475	80
2049.039186	18.524035	0.002266	8.174443	81
2050.091251	18.245600	0.002272	8.029592	82
2051.119219	18.615070	0.002265	8.219052	83
2052.169671	18.137003	0.002264	8.012330	84
2053.200618	18.681892	0.002264	8.251171	85
2054.248423	18.016863	0.002249	8.012490	86
2055.281120	18.703697	0.002249	8.318071	87
2056.331143	18.490885	0.002281	8.105292	88
2057.359177	18.757717	0.002260	8.300287	89
2058.411197	18.454414	0.002259	8.169184	90
2059.437120	18.608940	0.002259	8.236778	91
2060.491210	18.448610	0.002265	8.146033	92
2061.519228	18.757172	0.002258	8.306594	93
2062.569247	18.470766	0.002267	8.148514	94
2063.598218	18.593149	0.002258	8.235766	95
2064.650749	18.558661	0.002249	8.250968	96
2065.679326	18.691036	0.002256	8.285305	97
2066.728281	18.656368	0.002277	8.193427	98
2067.760278	22.439817	0.002246	9.991801	99
2068.808879	18.603865	0.002246	8.283108	100
2069.839472	18.991674	0.002290	8.293847	101
2070.887460	18.915306	0.002282	8.288694	102
2071.924027	18.675192	0.002246	8.314701	103
2072.964556	18.847485	0.002254	8.360074	104
2074.002598	19.060305	0.002280	8.360251	105
2075.046663	18.734732	0.002246	8.342462	106
2076.083242	19.157164	0.002295	8.347766	107
2077.123268	19.079370	0.002260	8.440764	108
2078.163282	19.153202	0.002260	8.475954	109
2079.203295	19.277325	0.002268	8.500445	110
2080.243347	19.024809	0.002281	8.339981	111
2081.281379	18.926247	0.002261	8.372366	112
2082.325408	18.948139	0.002260	8.383595	113
2083.361406	19.002604	0.002261	8.403442	114
2084.405432	18.971020	0.002254	8.417053	115
2085.441490	19.064459	0.002258	8.442145	116
2086.485561	19.057901	0.002257	8.442621	117
2087.521593	19.144293	0.002256	8.485723	118
2088.563334	19.638105	0.002260	8.689144	119
2089.601619	19.147959	0.002261	8.469183	120
2090.647663	19.043900	0.002248	8.473145	121
2091.680186	19.027575	0.002262	8.412409	122
2092.726266	19.274158	0.002270	8.492677	123
2093.762309	19.168850	0.002251	8.515071	124
2094.803270	19.538736	0.002272	8.599954	125
2095.843325	19.341068	0.002271	8.514844	126
2096.881233	19.089556	0.002259	8.448617	127
2097.921402	19.481863	0.002291	8.503770	128
2098.961449	19.370510	0.002275	8.516342	129
2100.003976	19.603346	0.002270	8.637321	130
2101.040010	19.469732	0.002280	8.539602	131
2102.081802	19.116299	0.002250	8.494771	132
2103.120119	19.666662	0.002288	8.595673	133
2104.166144	19.393133	0.002246	8.633088	134
2105.198737	19.657337	0.002278	8.630778	135
2106.246783	19.250349	0.002245	8.573145	136
2107.279347	19.515480	0.002254	8.657257	137
2108.325855	19.246037	0.002258	8.522484	138
2109.357842	19.558678	0.002262	8.647930	139
2110.405842	19.595598	0.002264	8.653606	140
2111.437880	19.849283	0.002273	8.732078	141
2112.486002	19.514153	0.002275	8.576588	142
2113.517901	19.839159	0.002268	8.749010	143
2114.565952	19.966326	0.002278	8.763783	144
2115.595962	19.755283	0.002260	8.739586	145
2116.644510	19.266901	0.002269	8.492298	146
2117.679016	19.580414	0.002235	8.762123	147
2118.728315	19.437496	0.002260	8.601629	148
2119.756030	19.786856	0.002255	8.775020	149
2120.806064	19.983469	0.002298	8.696546	150
2121.834104	20.108284	0.002280	8.819301	151
2122.888118	19.429722	0.002250	8.636462	152
2123.916095	19.994257	0.002258	8.852907	153
2124.968104	19.526587	0.002257	8.652727	154
