time (s)	coil I (A)	last det (V)	int current (uC)
407684.222325	0.401648	282.617187	51.367187
407684.224326	0.734563	282.617187	51.367187
407684.226329	1.000882	282.617187	51.367187
407684.228328	1.027461	282.617187	51.367187
407684.230326	1.024601	11.270610	0.144087
407685.271263	0.460688	75.976562	-546.386719
407685.275264	1.019640	75.976562	-546.386719
407685.277265	1.027472	75.976562	-546.386719
407685.279265	1.024854	11.273392	0.161490
407686.319781	0.452879	279.199219	47.949219
407686.321782	0.783871	279.199219	47.949219
407686.323783	1.017501	279.199219	47.949219
407686.325784	1.027225	279.199219	47.949219
407686.327783	1.024665	11.271310	0.104904
407687.369793	0.690081	70.214844	-564.746094
407687.371796	0.980251	70.214844	-564.746094
407687.373795	1.028697	70.214844	-564.746094
407687.375794	1.025622	11.281847	0.118240
407688.383850	0.397486	278.808594	47.460937
407688.385852	0.414190	278.808594	47.460937
407688.387851	0.999104	278.808594	47.460937
407688.389852	1.027324	278.808594	47.460937
407688.391852	1.024510	11.269608	0.144700
407689.431841	0.294668	73.339844	-555.371094
407689.433843	0.632363	73.339844	-555.371094
407689.435844	0.944093	73.339844	-555.371094
407689.437843	1.028996	73.339844	-555.371094
407689.439843	1.025573	11.281298	0.164121
407690.481863	0.541723	279.980469	46.777344
407690.483867	0.869341	279.980469	46.777344
407690.485866	1.029409	279.980469	46.777344
407690.487866	1.026729	11.294024	0.111284
407691.530411	0.536513	68.554687	-569.726562
407691.532413	0.864350	68.554687	-569.726562
407691.534412	1.028822	68.554687	-569.726562
407691.536411	1.026531	11.291843	0.120969
407692.544957	0.322014	284.179687	48.730469
407692.546958	0.657935	284.179687	48.730469
407692.548959	0.960535	284.179687	48.730469
407692.550960	1.027617	284.179687	48.730469
407692.552958	1.024276	11.267037	0.153702
407693.597032	0.897902	76.757812	-543.359375
407693.599033	1.027770	76.757812	-543.359375
407693.601035	1.024416	11.268579	0.157462
407694.643617	0.575525	283.496094	47.070312
407694.645619	0.899708	283.496094	47.070312
407694.647619	1.029767	283.496094	47.070312
407694.649619	1.026324	11.289566	0.113801
407695.694139	0.892267	60.937500	-587.500000
407695.696139	1.029014	60.937500	-587.500000
407695.698140	1.025773	11.283504	0.117872
407696.708171	0.606870	291.015625	51.269531
407696.710173	0.925747	291.015625	51.269531
407696.712173	1.032916	291.015625	51.269531
407696.714173	1.029158	11.320744	0.160602
407697.756713	0.601007	76.171875	-544.531250
407697.758714	0.920676	76.171875	-544.531250
407697.760715	1.029621	76.171875	-544.531250
407697.762715	1.026087	11.286961	0.171320
407698.807275	0.918468	286.523437	48.046875
407698.809276	1.029563	286.523437	48.046875
407698.811276	1.026016	11.286180	0.166873
407699.855804	0.911615	70.117187	-562.207031
407699.857806	1.029563	70.117187	-562.207031
407699.859805	1.025991	11.285906	0.132714
407700.867830	0.290024	292.578125	52.539062
407700.869835	0.627781	292.578125	52.539062
407700.871831	0.940904	292.578125	52.539062
407700.873834	1.029466	292.578125	52.539062
407700.875832	1.025941	11.285357	0.172289
407701.916356	0.281280	78.320312	-538.183594
407701.918357	0.619702	78.320312	-538.183594
407701.920360	0.935281	78.320312	-538.183594
407701.922355	1.030118	78.320312	-538.183594
407701.924358	1.026469	11.291162	0.173569
407702.964925	0.280278	287.011719	49.316406
407702.966925	0.618769	287.011719	49.316406
407702.968927	0.934836	287.011719	49.316406
407702.970926	1.031024	287.011719	49.316406
407702.972925	1.027327	11.300599	0.132934
407704.016923	0.850547	69.921875	-561.621094
407704.018926	1.028840	69.921875	-561.621094
407704.020928	1.027297	11.300262	0.131824
407705.031449	0.642011	287.500000	52.246094
407705.033452	0.951120	287.500000	52.246094
407705.035450	1.029705	287.500000	52.246094
407705.037452	1.026293	11.289221	0.171905
407706.079514	0.556778	81.835937	-528.613281
407706.081516	0.883706	81.835937	-528.613281
407706.083516	1.031797	81.835937	-528.613281
407706.085520	1.028581	11.314388	0.184093
407707.128092	0.555761	286.914062	52.539062
407707.130093	0.882909	286.914062	52.539062
407707.132094	1.031551	286.914062	52.539062
407707.134094	1.028300	11.311304	0.120197
407708.178070	0.788789	68.164062	-563.964844
407708.180072	1.019520	68.164062	-563.964844
407708.182072	1.028147	68.164062	-563.964844
407708.184072	1.025633	11.281961	0.137170
407709.194166	0.833217	286.132812	51.562500
407709.196170	1.027272	286.132812	51.562500
407709.198171	1.027105	286.132812	51.562500
407709.200169	1.024713	11.271841	0.167605
407710.272228	0.284917	65.917969	-570.019531
407710.274230	0.623317	65.917969	-570.019531
407710.276230	0.938483	65.917969	-570.019531
407710.278230	1.031038	65.917969	-570.019531
407710.280231	1.027279	11.300068	0.108933
407711.290287	0.666794	286.328125	51.953125
407711.292287	0.967093	286.328125	51.953125
407711.294287	1.029438	286.328125	51.953125
407711.296286	1.026163	11.287793	0.121506
407712.336838	0.326828	74.023437	-550.488281
407712.338841	0.663190	74.023437	-550.488281
407712.340840	0.965032	74.023437	-550.488281
407712.342842	1.029955	74.023437	-550.488281
407712.344840	1.026584	11.292419	0.153846
407713.354870	0.699345	287.695312	51.367187
407713.356872	0.985235	287.695312	51.367187
407713.358871	1.028708	287.695312	51.367187
407713.360872	1.025751	11.283256	0.172183
407714.434942	0.489495	69.042969	-562.988281
407714.436944	0.819585	69.042969	-562.988281
407714.438943	1.025767	69.042969	-562.988281
407714.442942	1.025531	69.042969	-562.988281
407714.448942	1.021540	11.236942	0.113956
407715.450991	0.529269	287.988281	50.195312
407715.452993	0.857900	287.988281	50.195312
407715.454994	1.029313	287.988281	50.195312
407715.456993	1.027290	11.300191	0.130313
407716.501556	0.855556	74.804687	-550.390625
407716.503558	1.029077	74.804687	-550.390625
407716.507557	1.024819	11.273010	0.155231
407717.515586	1.115038	295.312500	53.906250
407717.517586	0.888637	295.312500	53.906250
407717.519587	1.030046	295.312500	53.906250
407717.523583	1.024516	11.269678	0.182293
407718.596504	0.493020	69.335937	-565.136719
407718.598505	0.822935	69.335937	-565.136719
407718.600507	1.026405	69.335937	-565.136719
407718.602507	1.028028	69.335937	-565.136719
407718.604506	1.025591	11.281501	0.118744
407719.614510	0.535975	287.207031	45.507812
407719.616510	1.028218	287.207031	45.507812
407719.618512	1.026687	11.293553	0.130535
407720.662616	0.778307	84.179687	-529.589844
407720.664617	1.016352	84.179687	-529.589844
407720.668615	1.025129	84.179687	-529.589844
407720.672615	1.021976	11.241735	0.162152
407721.711141	0.771019	283.007812	41.699219
407721.713143	1.014321	283.007812	41.699219
407721.715142	1.027967	283.007812	41.699219
407721.717143	1.025368	11.279046	0.091636
407722.757171	0.345612	70.703125	-560.937500
407722.759171	0.680803	70.703125	-560.937500
407722.761173	0.975125	70.703125	-560.937500
407722.763172	1.028825	70.703125	-560.937500
407722.765172	1.025674	11.282413	0.121630
407723.777234	0.997937	291.601562	44.433594
407723.779235	1.030975	291.601562	44.433594
407723.781236	1.027786	11.305642	0.138558
407724.821219	0.287556	83.007812	-531.152344
407724.823220	0.625610	83.007812	-531.152344
407724.825222	0.939520	83.007812	-531.152344
407724.827226	1.030144	83.007812	-531.152344
407724.829227	1.026527	11.291799	0.174044
407725.870235	0.361608	289.941406	41.015625
407725.872236	0.696166	289.941406	41.015625
407725.874237	0.983700	289.941406	41.015625
407725.876237	1.029179	289.941406	41.015625
407725.880235	1.024099	11.265087	0.099144
407726.920289	0.607990	69.433594	-562.304687
407726.922289	0.926634	69.433594	-562.304687
407726.924290	1.031233	69.433594	-562.304687
407726.926291	1.027400	11.301405	0.128127
407727.936314	0.646116	299.902344	46.289062
407727.938316	0.953333	299.902344	46.289062
407727.940318	1.028570	299.902344	46.289062
407727.942317	1.025200	11.277203	0.143705
407728.982835	0.299468	83.886719	-525.976562
407728.984836	0.636832	83.886719	-525.976562
407728.986837	0.947241	83.886719	-525.976562
407728.988836	1.029305	83.886719	-525.976562
407728.990836	1.025928	11.285206	0.177054
407730.035774	0.983244	289.746094	38.867187
407730.037775	1.028155	289.746094	38.867187
407730.041773	1.025112	11.276228	0.591928
407731.077287	1.863124	71.191406	-556.054687
407731.082534	0.726994	71.191406	-556.054687
407731.084534	0.735799	71.191406	-556.054687
407731.086535	1.027960	71.191406	-556.054687
407731.088534	1.025139	11.276528	0.130566
407732.098580	0.764744	302.734375	46.386719
407732.100581	1.012623	302.734375	46.386719
407732.102581	1.028288	302.734375	46.386719
407732.104582	1.025576	11.281342	0.148573
407733.145095	0.424059	85.253906	-521.875000
407733.147096	0.756280	85.253906	-521.875000
407733.149097	1.009908	85.253906	-521.875000
407733.151097	1.028492	85.253906	-521.875000
407733.153098	1.025781	11.283592	0.178920
407734.194037	0.483789	297.558594	42.480469
407734.196040	0.813926	297.558594	42.480469
407734.198040	1.024615	297.558594	42.480469
407734.200040	1.027751	297.558594	42.480469
407734.202039	1.025256	11.277814	0.110287
407735.242597	0.481040	76.171875	-543.554687
407735.244597	0.811367	76.171875	-543.554687
407735.246598	1.024847	76.171875	-543.554687
407735.248595	1.028492	76.171875	-543.554687
407735.250596	1.025934	11.285276	0.134368
407736.259130	0.603890	299.902344	43.652344
407736.261132	0.923497	299.902344	43.652344
407736.263131	1.031298	299.902344	43.652344
407736.265133	1.027514	11.302655	0.210141
407737.313165	1.027334	85.546875	-520.117187
407737.315166	1.024944	11.274384	0.177519
407738.355704	1.107504	299.316406	42.968750
407738.357713	0.837089	299.316406	42.968750
407738.359711	1.027442	299.316406	42.968750
407738.363710	1.024579	11.270370	0.108128
407739.404653	0.568996	79.296875	-533.789062
407739.406654	0.894322	79.296875	-533.789062
407739.408653	1.030713	79.296875	-533.789062
407739.410653	1.027278	11.300058	0.131671
407740.420640	0.599392	301.953125	45.117187
407740.424641	1.031220	301.953125	45.117187
407740.426641	1.027408	301.953125	45.117187
407740.428642	1.025320	11.278523	0.198663
407741.468683	0.510972	85.742187	-516.113281
407741.470685	0.840080	85.742187	-516.113281
407741.472684	0.846352	85.742187	-516.113281
407741.474685	1.026950	11.296452	0.191376
407742.516702	0.418306	296.972656	42.382812
407742.518705	0.750494	296.972656	42.382812
407742.520703	1.006921	296.972656	42.382812
407742.522706	1.027282	296.972656	42.382812
407742.524705	1.024530	11.269829	0.112391
407743.566713	0.657288	80.371094	-526.855469
407743.568715	0.960762	80.371094	-526.855469
407743.570716	1.028792	80.371094	-526.855469
407743.572715	1.025492	11.280412	0.449996
407744.581667	1.391019	304.687500	47.753906
407744.583669	0.843206	304.687500	47.753906
407744.585669	1.027832	304.687500	47.753906
407744.587669	1.026962	11.296585	0.158116
407745.629710	0.425571	86.718750	-509.375000
407745.631711	0.757230	86.718750	-509.375000
407745.633713	1.008870	86.718750	-509.375000
407745.635713	1.026824	86.718750	-509.375000
407745.637714	1.024004	11.264043	0.201220
407746.677727	1.718597	299.316406	44.531250
407746.679730	0.665293	299.316406	44.531250
407746.681729	0.676924	299.316406	44.531250
407746.683731	1.028001	299.316406	44.531250
407746.685729	1.024767	11.272435	0.116533
407747.727741	0.570537	75.390625	-529.589844
407747.729743	0.895479	75.390625	-529.589844
407747.733741	1.026949	75.390625	-529.589844
407747.735743	1.024671	11.271380	0.146287
407748.743763	0.606383	308.593750	50.292969
407748.745768	0.925088	308.593750	50.292969
407748.747767	1.031225	308.593750	50.292969
407748.749766	1.027447	11.301911	0.242785
407749.791775	0.511975	91.699219	-491.796875
407749.793776	0.840519	91.699219	-491.796875
407749.797776	1.026499	91.699219	-491.796875
407749.799776	1.024050	11.264547	0.205082
407750.840737	0.577535	303.027344	45.312500
407750.842739	0.901644	303.027344	45.312500
407750.844741	1.032740	303.027344	45.312500
407750.846740	1.029149	11.320637	0.118119
407751.889307	0.576550	77.441406	-520.117187
407751.891308	0.900210	77.441406	-520.117187
407751.893308	1.028417	77.441406	-520.117187
407751.895308	1.025095	11.276042	0.149212
407752.905394	0.622118	310.644531	50.195312
407752.907396	0.936340	310.644531	50.195312
407752.909397	1.028738	310.644531	50.195312
407752.911397	1.025227	11.277495	0.171821
407753.953981	0.624465	89.160156	-492.773437
407753.955983	0.938231	89.160156	-492.773437
407753.957982	1.029080	89.160156	-492.773437
407753.959982	1.025552	11.281067	0.202541
407755.000532	0.282155	308.984375	47.167969
407755.002540	0.619856	308.984375	47.167969
407755.004542	0.935516	308.984375	47.167969
407755.006543	1.028148	308.984375	47.167969
407755.008543	1.024652	11.271176	0.136256
407756.054604	1.027379	78.027344	-515.429687
407756.056608	1.025353	11.278887	0.147105
407757.099121	0.525222	305.859375	43.457031
407757.101123	0.853194	305.859375	43.457031
407757.103123	1.027895	305.859375	43.457031
407757.105125	1.026219	11.288405	0.099944
407758.152104	1.027768	68.164062	-535.449219
407758.154105	1.024304	11.267339	0.119487
407759.162623	0.378788	309.863281	43.750000
407759.164625	0.712028	309.863281	43.750000
407759.166627	0.990315	309.863281	43.750000
407759.168626	1.026676	309.863281	43.750000
407759.170628	1.023628	11.259912	0.144729
407760.212636	0.618222	70.703125	-531.445312
407760.214637	0.933259	70.703125	-531.445312
407760.216639	1.028180	70.703125	-531.445312
407760.218637	1.024609	11.270698	0.284757
407761.262669	0.855033	310.351562	40.917969
407761.264671	1.025913	310.351562	40.917969
407761.266668	1.026077	11.286844	0.099104
407762.309206	0.520205	66.699219	-538.769531
407762.311206	0.848926	66.699219	-538.769531
407762.313206	1.027803	66.699219	-538.769531
407762.315206	1.026447	11.290913	0.111875
407763.323761	0.308934	316.796875	42.285156
407763.325763	0.645890	316.796875	42.285156
407763.327763	0.953611	316.796875	42.285156
407763.329763	1.029539	316.796875	42.285156
407763.331763	1.026109	11.287200	0.149804
407764.373789	0.555587	74.023437	-525.097656
407764.375791	0.882317	74.023437	-525.097656
407764.377792	1.030887	74.023437	-525.097656
407764.379793	1.027620	11.303817	0.149956
407765.424386	0.884045	314.648437	39.257812
407765.428391	1.027336	314.648437	39.257812
407765.430391	1.025134	11.276476	0.103310
407766.470916	0.549630	61.816406	-548.437500
407766.472917	0.876687	61.816406	-548.437500
407766.474918	1.029709	61.816406	-548.437500
407766.476915	1.026906	11.295965	0.108782
407767.486924	0.582247	320.312500	40.722656
407767.488928	0.904910	320.312500	40.722656
407767.490927	1.029223	320.312500	40.722656
407767.492928	1.025770	11.283468	0.147557
407768.534925	0.488575	70.703125	-530.566406
407768.536926	0.817602	70.703125	-530.566406
407768.540923	1.025989	70.703125	-530.566406
407768.542926	1.023295	70.703125	-530.566406
407768.544925	1.021607	11.237678	0.156784
407769.582961	0.398837	312.890625	36.425781
407769.584964	0.730997	312.890625	36.425781
407769.586964	0.998304	312.890625	36.425781
407769.588964	1.026049	312.890625	36.425781
407769.590962	1.023026	11.253284	0.109950
407770.632999	0.641905	68.066406	-535.351562
407770.635000	0.950086	68.066406	-535.351562
407770.637001	1.027483	68.066406	-535.351562
407770.639000	1.024067	11.264733	0.120421
407771.647518	0.428083	326.269531	42.187500
407771.649520	0.759728	326.269531	42.187500
407771.651523	1.009457	326.269531	42.187500
407771.653521	1.026399	326.269531	42.187500
407771.655521	1.023591	11.259505	0.157028
407772.695547	0.334980	78.027344	-513.574219
407772.697549	0.670389	78.027344	-513.574219
407772.699549	0.968419	78.027344	-513.574219
407772.705548	1.022800	78.027344	-513.574219
407772.707550	1.021384	11.235223	0.163841
407773.746071	2.131262	319.433594	38.085937
407773.748070	0.962316	319.433594	38.085937
407773.750070	1.027890	319.433594	38.085937
407773.752071	1.024511	11.269617	0.437112
407774.795048	0.727109	63.378906	-538.867187
407774.797049	0.997340	63.378906	-538.867187
407774.799049	1.027057	63.378906	-538.867187
407774.801049	1.024232	11.266551	0.122019
407775.811090	0.764842	321.289062	38.183594
407775.813094	1.010818	321.289062	38.183594
407775.815093	1.025964	321.289062	38.183594
407775.817093	1.023155	11.254710	0.153780
407776.857113	0.339402	78.027344	-510.742187
407776.859112	0.674500	78.027344	-510.742187
407776.861113	0.970744	78.027344	-510.742187
407776.863114	1.027573	78.027344	-510.742187
407776.865115	1.024405	11.268456	0.169553
407777.907146	0.585111	321.484375	37.792969
407777.909149	0.908066	321.484375	37.792969
407777.911149	1.031007	321.484375	37.792969
407777.913148	1.027295	11.300245	0.116435
407778.955740	0.585156	68.652344	-527.050781
407778.957741	0.600308	68.652344	-527.050781
407778.959740	1.029123	68.652344	-527.050781
407778.961741	1.029038	11.319423	0.123417
407779.971782	0.626278	324.804687	38.378906
407779.973783	0.939360	324.804687	38.378906
407779.975783	1.028916	324.804687	38.378906
407779.977784	1.025466	11.280127	0.165992
407781.021829	0.865029	80.273437	-502.539062
407781.023831	1.028954	80.273437	-502.539062
407781.025832	1.026546	11.292004	0.171706
407782.070353	0.858624	326.074219	38.476562
407782.072358	1.030188	326.074219	38.476562
407782.074360	1.028016	11.308177	0.118778
407783.118372	0.769325	64.160156	-529.687500
407783.120375	1.014064	64.160156	-529.687500
407783.122372	1.028286	64.160156	-529.687500
407783.124374	1.025668	11.282343	0.128833
407784.134413	0.805646	332.714844	41.601562
407784.136415	1.023300	332.714844	41.601562
407784.138416	1.028020	332.714844	41.601562
407784.140415	1.025510	11.280615	0.176777
407785.180930	0.465774	80.664062	-498.144531
407785.182932	0.796658	80.664062	-498.144531
407785.184932	1.021326	80.664062	-498.144531
407785.186932	1.028076	80.664062	-498.144531
407785.188933	1.025486	11.280349	0.184687
407786.231519	0.800462	328.320312	39.257812
407786.233519	1.022723	328.320312	39.257812
407786.235520	1.028740	328.320312	39.257812
407786.237521	1.026172	11.287891	0.123516
407787.278094	0.470125	70.117187	-514.550781
407787.280096	0.801414	70.117187	-514.550781
407787.282095	1.024005	70.117187	-514.550781
407787.284097	1.030090	70.117187	-514.550781
407787.286095	1.027314	11.300457	0.131137
407788.296121	0.836270	328.808594	40.039062
407788.298124	1.029952	328.808594	40.039062
407788.300124	1.029975	328.808594	40.039062
407788.302124	1.027415	11.301565	0.177414
407789.342131	0.412491	79.882812	-492.968750
407789.344132	0.745915	79.882812	-492.968750
407789.346132	1.008044	79.882812	-492.968750
407789.348133	1.031827	79.882812	-492.968750
407789.350135	1.028687	11.315558	0.184763
407790.392239	0.667982	328.222656	40.332031
407790.394239	0.968971	328.222656	40.332031
407790.396242	1.031812	328.222656	40.332031
407790.398239	1.028203	11.310233	0.130764
407791.440815	0.668175	75.292969	-496.777344
407791.442816	0.969144	75.292969	-496.777344
407791.444819	1.031928	75.292969	-496.777344
407791.446819	1.028388	11.312271	0.139012
407792.455349	0.454466	332.519531	43.554687
407792.457350	0.786250	332.519531	43.554687
407792.461347	1.030739	332.519531	43.554687
407792.463349	1.027828	332.519531	43.554687
407792.465350	1.026197	11.288165	0.184656
407793.505386	0.699552	82.812500	-480.078125
407793.507389	0.987059	82.812500	-480.078125
407793.509388	1.032073	82.812500	-480.078125
407793.511388	1.028715	11.315860	0.194919
407794.553427	0.610392	328.417969	42.578125
407794.555427	0.930461	328.417969	42.578125
407794.557427	1.037742	328.417969	42.578125
407794.559429	1.034165	11.375814	0.133793
407795.602004	0.610835	77.539062	-484.179687
407795.604008	0.930273	77.539062	-484.179687
407795.606005	1.034814	77.539062	-484.179687
407795.608007	1.031317	11.344485	0.234464
407796.618958	0.799784	331.054687	42.968750
407796.620957	1.024088	331.054687	42.968750
407796.622958	1.030838	331.054687	42.968750
407796.624958	1.027932	11.307255	0.186260
407797.665034	0.383616	85.937500	-466.015625
407797.667037	0.718300	85.937500	-466.015625
407797.669036	0.996641	85.937500	-466.015625
407797.671038	1.032496	85.937500	-466.015625
407797.673036	1.029295	11.322250	0.204105
407798.713126	0.299042	326.269531	41.406250
407798.715129	0.638130	326.269531	41.406250
407798.717127	0.950705	326.269531	41.406250
407798.721127	1.031629	326.269531	41.406250
407798.723127	1.029266	11.321922	0.134062
407799.763153	0.549421	80.566406	-472.753906
407799.765155	0.879033	80.566406	-472.753906
407799.767157	1.037591	80.566406	-472.753906
407799.769156	1.034871	11.383586	0.151893
407800.779771	0.685668	335.449219	46.093750
407800.781771	0.982045	335.449219	46.093750
407800.783773	1.037327	335.449219	46.093750
407800.785772	1.033994	11.373935	0.178985
407801.860370	0.559819	70.800781	-482.128906
407801.862371	0.889572	70.800781	-482.128906
407801.864372	1.039698	70.800781	-482.128906
407801.866371	1.036787	11.404660	0.111254
407802.876377	0.593646	324.609375	39.843750
407802.878380	0.917832	324.609375	39.843750
407802.880379	1.038973	324.609375	39.843750
407802.882380	1.035418	11.389594	0.126258
407803.924375	0.495649	85.351562	-461.035156
407803.926377	0.826561	85.351562	-461.035156
407803.928377	1.031754	85.351562	-461.035156
407803.930378	1.032767	85.351562	-461.035156
407803.934375	1.029363	11.322994	0.159488
407804.940353	0.524010	333.300781	42.675781
407804.942353	0.854022	333.300781	42.675781
407804.944356	1.035305	333.300781	42.675781
407804.946355	1.034145	11.375592	0.194284
407806.024373	0.955009	73.535156	-475.390625
407806.026375	1.041297	73.535156	-475.390625
407806.028377	1.037915	11.417068	0.312350
407807.036397	0.336069	334.082031	42.382812
407807.038398	0.674454	334.082031	42.382812
407807.040397	0.974359	334.082031	42.382812
407807.042397	1.035269	334.082031	42.382812
407807.044397	1.032090	11.352993	0.137582
407808.088450	0.910238	85.742187	-457.910156
407808.090452	1.036892	85.742187	-457.910156
407808.092453	1.033482	11.368307	0.170504
407809.101059	0.385044	337.500000	42.773437
407809.103062	0.720326	337.500000	42.773437
407809.105061	0.998624	337.500000	42.773437
407809.107060	1.034245	337.500000	42.773437
407809.109061	1.031333	11.344663	0.190680
407810.183139	0.508056	72.265625	-473.828125
407810.185142	0.838675	72.265625	-473.828125
407810.187145	1.033300	72.265625	-473.828125
407810.189147	1.033689	11.370577	0.122974
407811.199211	0.553061	336.035156	41.210937
407811.201214	0.881755	336.035156	41.210937
407811.203222	1.037304	336.035156	41.210937
407811.205229	1.034453	11.378986	0.137446
407812.248206	0.623953	88.769531	-451.953125
407812.250206	0.940718	88.769531	-451.953125
407812.252206	1.036372	88.769531	-451.953125
407812.254206	1.032855	11.361404	0.189728
407813.295153	0.346910	325.195312	36.328125
407813.297155	0.684051	325.195312	36.328125
407813.299156	0.980113	325.195312	36.328125
407813.301155	1.035175	325.195312	36.328125
407813.303155	1.032058	11.352639	0.100300
407814.345178	0.591612	79.101562	-465.527344
407814.347180	0.915491	79.101562	-465.527344
407814.349181	1.036924	79.101562	-465.527344
407814.351182	1.033430	11.367731	0.127062
407815.360147	0.450598	334.570312	38.671875
407815.362148	0.783144	334.570312	38.671875
407815.364149	1.021626	334.570312	38.671875
407815.366148	1.033243	334.570312	38.671875
407815.368147	1.030369	11.334064	0.140806
407816.408176	0.356605	84.960937	-456.054687
407816.410176	0.694426	84.960937	-456.054687
407816.412178	0.986333	84.960937	-456.054687
407816.414178	1.036191	84.960937	-456.054687
407816.418177	1.031180	11.342979	0.184691
407817.458163	0.596426	327.148437	35.644531
407817.460166	0.919781	327.148437	35.644531
407817.464173	1.035203	327.148437	35.644531
407817.466176	1.033201	11.365206	0.112890
407818.506253	0.514674	78.125000	-462.988281
407818.510251	1.035365	78.125000	-462.988281
407818.512252	1.034971	78.125000	-462.988281
407818.514252	1.032602	11.358622	0.137413
407819.524271	0.878785	341.210937	39.941406
407819.526272	1.037106	341.210937	39.941406
407819.528273	1.034447	11.378915	0.149307
407820.570819	0.544983	81.835937	-456.542969
407820.572820	0.874206	81.835937	-456.542969
407820.574823	1.037038	81.835937	-456.542969
407820.576825	1.034587	11.380457	0.195299
407821.618852	0.455700	335.156250	37.500000
407821.620856	0.789415	335.156250	37.500000
407821.622856	1.025334	335.156250	37.500000
407821.624855	1.035854	335.156250	37.500000
407821.626856	1.033197	11.365170	0.100823
407822.667749	0.508473	79.785156	-456.347656
407822.669756	0.839118	79.785156	-456.347656
407822.671762	1.033442	79.785156	-456.347656
407822.673762	1.033523	11.368750	0.141696
407823.684288	0.631088	339.355469	38.183594
407823.686288	0.946307	339.355469	38.183594
407823.688289	1.037417	339.355469	38.183594
407823.690288	1.033880	11.372676	0.314181
407824.734351	0.873170	91.992187	-435.644531
407824.738352	1.032629	91.992187	-435.644531
407824.740353	1.030097	11.331068	0.189491
407825.780357	0.449871	336.816406	37.011719
407825.782360	0.782982	336.816406	37.011719
407825.784360	1.022713	336.816406	37.011719
407825.786361	1.024636	336.816406	37.011719
407825.788359	1.032093	11.353020	0.105955
407826.830925	0.781025	79.980469	-450.000000
407826.832928	1.022058	79.980469	-450.000000
407826.834928	1.034394	79.980469	-450.000000
407826.836927	1.031807	11.349874	0.145772
407827.845466	0.570129	340.625000	38.085937
407827.847468	0.897274	340.625000	38.085937
407827.849474	1.037193	340.625000	38.085937
407827.851477	1.033900	11.372898	0.156665
407828.893526	0.484484	87.890625	-436.035156
407828.895528	0.816196	87.890625	-436.035156
407828.897528	1.030551	87.890625	-436.035156
407828.899528	1.034495	87.890625	-436.035156
407828.901528	1.032020	11.352222	0.200094
407829.941555	0.392151	336.230469	36.523437
407829.943557	0.726826	336.230469	36.523437
407829.945557	1.001487	336.230469	36.523437
407829.947558	1.033865	336.230469	36.523437
407829.949556	1.030868	11.339548	0.113550
407830.991597	0.640452	79.785156	-440.917969
407830.993599	0.952774	79.785156	-440.917969
407830.995601	1.036878	79.785156	-440.917969
407830.997599	1.033412	11.367528	0.153177
407832.007620	0.671751	341.699219	37.500000
407832.009619	0.972419	341.699219	37.500000
407832.011622	1.034175	341.699219	37.500000
407832.013621	1.030892	11.339815	0.513673
407833.055672	0.586185	85.937500	-429.980469
407833.057674	0.911011	85.937500	-429.980469
407833.059675	1.036418	85.937500	-429.980469
407833.061676	1.033048	11.363531	0.204578
407834.103693	0.494090	341.992187	37.890625
407834.105695	0.825108	341.992187	37.890625
407834.107695	1.030541	341.992187	37.890625
407834.109694	1.032823	341.992187	37.890625
407834.111695	1.030159	11.331750	0.114530
407835.152631	0.552914	82.910156	-430.371094
407835.154636	0.881449	82.910156	-430.371094
407835.156635	1.035914	82.910156	-430.371094
407835.158634	1.033241	11.365648	0.153445
407836.167547	0.404759	351.757812	41.699219
407836.169549	0.739024	351.757812	41.699219
407836.171550	1.006536	351.757812	41.699219
407836.173549	1.033492	351.757812	41.699219
407836.175550	1.030545	11.335995	0.164168
407837.217557	0.644929	93.457031	-412.792969
407837.219560	0.955159	93.457031	-412.792969
407837.221560	1.034377	93.457031	-412.792969
407837.223560	1.030914	11.340055	0.208953
407838.266148	0.647698	345.898437	39.160156
407838.268148	0.957063	345.898437	39.160156
407838.270148	1.034295	345.898437	39.160156
407838.272148	1.030840	11.339239	0.123554
407839.313067	0.369620	77.148437	-428.515625
407839.315069	0.705410	77.148437	-428.515625
407839.317069	0.991365	77.148437	-428.515625
407839.319069	1.034295	77.148437	-428.515625
407839.321070	1.031270	11.343971	0.158386
407840.331123	0.745400	354.296875	41.894531
407840.333123	1.008764	354.296875	41.894531
407840.335123	1.032890	354.296875	41.894531
407840.337122	1.029848	11.328329	0.176806
407841.378109	0.478827	94.042969	-406.250000
407841.380110	0.810455	94.042969	-406.250000
407841.382112	1.027823	94.042969	-406.250000
407841.384110	1.032652	94.042969	-406.250000
407841.386110	1.029812	11.327930	0.211771
407842.428142	0.720162	346.972656	38.281250
407842.430145	0.999019	346.972656	38.281250
407842.432144	1.033518	346.972656	38.281250
407842.434143	1.030489	11.335384	0.134386
407843.474696	0.380299	74.121094	-425.488281
407843.476696	0.715481	74.121094	-425.488281
407843.478696	0.996341	74.121094	-425.488281
407843.480696	1.034038	74.121094	-425.488281
407843.482695	1.031111	11.342226	0.162224
407844.490755	0.424232	351.367187	39.257812
407844.492759	0.757674	351.367187	39.257812
407844.494756	1.013350	351.367187	39.257812
407844.496757	1.033075	351.367187	39.257812
407844.498757	1.030150	11.331654	0.191859
407845.538276	3.268392	89.355469	-409.960937
407845.543598	1.025647	89.355469	-409.960937
407845.545600	1.032392	89.355469	-409.960937
407845.547601	1.029530	11.324829	0.534972
407846.590177	0.803349	350.976562	37.792969
407846.592180	1.026596	350.976562	37.792969
407846.594178	1.033079	350.976562	37.792969
407846.596181	1.030327	11.333594	0.137143
407847.638706	0.795497	78.906250	-421.679687
407847.640706	1.024313	78.906250	-421.679687
407847.644705	1.029613	78.906250	-421.679687
407847.646707	1.027838	11.306218	0.157052
407848.687288	0.794884	347.167969	35.546875
407848.689290	1.024605	347.167969	35.546875
407848.691289	1.033045	347.167969	35.546875
407848.693289	1.030233	11.332566	0.095866
407849.735867	0.797918	71.777344	-427.539062
407849.737869	1.025483	71.777344	-427.539062
407849.739867	1.033196	71.777344	-427.539062
407849.741869	1.030407	11.334480	0.110839
407850.750438	0.594441	357.910156	38.378906
407850.752439	0.917829	357.910156	38.378906
407850.754440	1.036371	357.910156	38.378906
407850.756440	1.032958	11.362538	0.149119
407851.798997	0.586523	70.898437	-430.371094
407851.800999	0.911344	70.898437	-430.371094
407851.802998	1.036165	70.898437	-430.371094
407851.804999	1.032727	11.359995	0.161054
407852.847027	0.500224	348.437500	33.886719
407852.849038	0.831208	348.437500	33.886719
407852.851034	1.032867	348.437500	33.886719
407852.853032	1.034187	348.437500	33.886719
407852.857037	1.029785	11.327638	0.104110
407853.895058	0.407623	67.480469	-432.324219
407853.897060	0.741652	67.480469	-432.324219
407853.899060	1.007260	67.480469	-432.324219
407853.901060	1.032966	67.480469	-432.324219
407853.903059	1.029940	11.329340	0.116475
407854.911065	0.441866	356.835937	34.472656
407854.913067	0.774752	356.835937	34.472656
407854.915067	1.018731	356.835937	34.472656
407854.917067	1.032591	356.835937	34.472656
407854.919068	1.032483	11.357318	0.158147
407855.963087	0.981495	77.734375	-424.316406
407855.965090	1.035506	77.734375	-424.316406
407855.967089	1.032415	11.356565	0.168144
407857.009630	0.677481	356.640625	33.789062
407857.011633	0.975714	356.640625	33.789062
407857.013631	1.033714	356.640625	33.789062
407857.015632	1.030402	11.334417	0.507565
407858.059634	0.908070	64.062500	-433.007812
407858.063635	1.032166	64.062500	-433.007812
407858.065635	1.029797	11.327772	0.112955
407859.075638	0.934300	357.714844	33.007812
407859.077639	1.036007	357.714844	33.007812
407859.079639	1.032575	11.358329	0.255010
407860.121715	0.534063	76.953125	-424.609375
407860.123717	0.863835	76.953125	-424.609375
407860.125718	1.034908	76.953125	-424.609375
407860.127718	1.033101	11.364116	0.165159
407861.169705	0.435350	359.667969	32.324219
407861.171706	0.768570	359.667969	32.324219
407861.173706	1.017980	359.667969	32.324219
407861.175707	1.034233	359.667969	32.324219
407861.177707	1.031482	11.346302	0.115282
407862.220253	0.762554	72.460937	-427.343750
407862.222254	1.014567	72.460937	-427.343750
407862.224254	1.032429	72.460937	-427.343750
407862.226255	1.029426	11.323686	0.117604
407863.235176	0.616683	363.964844	32.617187
407863.237175	0.935199	363.964844	32.617187
407863.239177	1.036353	363.964844	32.617187
407863.241176	1.032852	11.361368	0.267402
407864.285156	0.847075	78.710937	-420.019531
407864.287156	1.033673	78.710937	-420.019531
407864.289157	1.033118	11.364293	0.172516
407865.331684	0.508095	360.644531	31.542969
407865.335690	1.031856	360.644531	31.542969
407865.337692	1.032158	360.644531	31.542969
407865.339692	1.029428	11.323703	0.116406
407866.380282	0.512099	71.484375	-424.414062
407866.382285	0.842491	71.484375	-424.414062
407866.384295	1.032784	71.484375	-424.414062
407866.386295	1.032542	11.357957	0.126845
407867.394841	0.297367	367.773437	32.324219
407867.398841	0.949540	367.773437	32.324219
407867.400844	1.034826	367.773437	32.324219
407867.402844	1.031311	11.344424	0.168774
407868.444892	0.549333	78.515625	-414.843750
407868.446894	0.878018	78.515625	-414.843750
407868.448896	1.034827	78.515625	-414.843750
407868.450895	1.032327	11.355598	0.177621
407869.494914	0.789712	362.500000	30.859375
407869.496915	1.022774	362.500000	30.859375
407869.498915	1.032373	362.500000	30.859375
407869.502913	1.027623	11.303852	0.123170
407870.541492	1.672816	71.093750	-418.750000
407870.543495	0.791177	71.093750	-418.750000
407870.545495	1.023761	71.093750	-418.750000
407870.547496	1.033208	71.093750	-418.750000
407870.549494	1.030487	11.335358	0.131865
407871.557493	0.490355	372.363281	33.007812
407871.559494	0.538303	372.363281	33.007812
407871.561495	1.029515	372.363281	33.007812
407871.563496	1.032350	372.363281	33.007812
407871.565499	1.029614	11.325759	0.170997
407872.605994	0.477581	81.835937	-406.152344
407872.607993	0.808911	81.835937	-406.152344
407872.609994	1.027123	81.835937	-406.152344
407872.611994	1.032280	81.835937	-406.152344
407872.613995	1.029362	11.322986	0.183406
407873.656489	0.797410	365.039062	30.664062
407873.658490	1.025686	365.039062	30.664062
407873.660490	1.033705	365.039062	30.664062
407873.662490	1.030989	11.340878	0.124031
407874.705109	0.803068	73.730469	-410.644531
407874.707112	1.026107	73.730469	-410.644531
407874.709112	1.032550	73.730469	-410.644531
407874.711112	1.029689	11.326574	0.132629
407875.719647	0.593845	371.191406	31.933594
407875.723649	1.036247	371.191406	31.933594
407875.725649	1.032831	371.191406	31.933594
407875.727650	1.030547	11.336022	0.192638
407876.767666	0.499940	80.468750	-400.488281
407876.769667	0.830427	80.468750	-400.488281
407876.771675	1.031226	80.468750	-400.488281
407876.773675	1.032521	80.468750	-400.488281
407876.775676	1.029784	11.327621	0.186069
407877.815752	0.417154	367.285156	31.152344
407877.817753	0.750526	367.285156	31.152344
407877.819756	1.009692	367.285156	31.152344
407877.821753	1.031541	367.285156	31.152344
407877.825753	1.026626	11.292889	0.130505
407878.865773	0.656453	72.265625	-403.027344
407878.869772	1.032327	72.265625	-403.027344
407878.871773	1.028690	72.265625	-403.027344
407878.875771	1.025357	11.278931	0.141952
407879.879758	0.352345	379.492187	35.156250
407879.881760	0.688168	379.492187	35.156250
407879.885759	1.031805	379.492187	35.156250
407879.887762	1.028407	379.492187	35.156250
407879.889761	1.026538	11.291924	0.189115
407880.928681	0.410364	84.179687	-387.597656
407880.930685	0.743693	84.179687	-387.597656
407880.932683	1.006632	84.179687	-387.597656
407880.934683	1.030851	84.179687	-387.597656
407880.936683	1.027725	11.304977	0.208160
407881.981227	1.005370	371.875000	32.519531
407881.983232	1.030998	371.875000	32.519531
407881.985231	1.027940	11.307335	0.134755
407883.027783	0.736871	76.269531	-388.964844
407883.029784	1.003693	76.269531	-388.964844
407883.031785	1.030435	76.269531	-388.964844
407883.033785	1.027366	11.301025	0.144472
407884.042329	0.527411	376.464844	34.765625
407884.044332	0.856190	376.464844	34.765625
407884.046332	1.030315	376.464844	34.765625
407884.048332	1.028346	11.311802	0.194865
407885.092347	0.762835	85.839844	-375.292969
407885.094350	1.012428	85.839844	-375.292969
407885.096349	1.028942	85.839844	-375.292969
407885.100348	1.024461	11.269068	0.203222
407886.140927	0.762416	370.507812	33.203125
407886.142929	1.011364	370.507812	33.203125
407886.144929	1.027615	370.507812	33.203125
407886.146929	1.024905	11.273951	0.137960
407887.189475	0.757546	77.050781	-375.976562
407887.193477	1.026458	77.050781	-375.976562
407887.195476	1.023648	77.050781	-375.976562
407887.197478	1.021855	11.240406	0.146479
407888.204026	0.547011	372.753906	34.375000
407888.206029	0.873306	372.753906	34.375000
407888.208030	1.027452	372.753906	34.375000
407888.210032	1.024727	11.272001	0.194971
407889.252097	0.464903	87.597656	-361.425781
407889.254099	0.794988	87.597656	-361.425781
407889.256101	1.019396	87.597656	-361.425781
407889.258099	1.026253	87.597656	-361.425781
407889.260100	1.023559	11.259150	0.213220
407890.302611	0.786402	370.214844	33.691406
407890.304612	1.017636	370.214844	33.691406
407890.306614	1.026802	370.214844	33.691406
407890.308614	1.024148	11.265629	0.138143
407891.349114	0.444431	79.980469	-361.132812
407891.351116	0.775637	79.980469	-361.132812
407891.353116	1.015250	79.980469	-361.132812
407891.355116	1.027261	79.980469	-361.132812
407891.357118	1.024561	11.270176	0.154497
407892.400116	0.843980	362.109375	31.933594
407892.402120	1.027687	362.109375	31.933594
407892.404119	1.026756	11.294316	0.100672
407893.446632	0.503825	74.316406	-357.714844
407893.448639	0.832770	74.316406	-357.714844
407893.450640	1.027445	74.316406	-357.714844
407893.452641	1.027451	74.316406	-357.714844
407893.454641	1.025130	11.276432	0.117582
407894.465590	0.982925	365.234375	33.496094
407894.467594	1.028359	365.234375	33.496094
407894.469593	1.025441	11.279853	0.139481
407895.509620	0.265030	78.906250	-351.367187
407895.511620	0.604141	78.906250	-351.367187
407895.515618	1.031041	78.906250	-351.367187
407895.517620	1.027213	78.906250	-351.367187
407895.519621	1.025167	11.276839	0.168610
407896.561682	0.849201	364.062500	32.519531
407896.563684	1.028176	364.062500	32.519531
407896.565683	1.026803	11.294838	0.097818
407897.610238	0.846571	68.554687	-344.726562
407897.614237	1.027057	68.554687	-344.726562
407897.616237	1.024685	11.271531	0.123543
407898.624276	0.556052	374.511719	35.253906
407898.626278	0.882871	374.511719	35.253906
407898.628279	1.030141	374.511719	35.253906
407898.630278	1.026968	11.296647	0.144861
407899.674827	0.622779	84.472656	-341.406250
407899.676827	1.030179	84.472656	-341.406250
407899.678829	1.027119	11.298313	0.168869
407900.721391	1.945434	363.671875	32.324219
407900.723392	0.876816	363.671875	32.324219
407900.725393	1.030267	363.671875	32.324219
407900.727395	1.027362	11.300981	0.096291
407901.769447	0.464307	75.585937	-337.890625
407901.771450	0.795096	75.585937	-337.890625
407901.773448	1.021466	75.585937	-337.890625
407901.775448	1.028654	75.585937	-337.890625
407901.777448	1.026063	11.286694	0.125437
407902.785453	0.496063	378.906250	35.253906
407902.787455	0.825861	378.906250	35.253906
407902.789456	1.027619	378.906250	35.253906
407902.791457	1.028872	378.906250	35.253906
407902.795453	1.024739	11.272125	0.147568
407903.834383	0.555046	85.253906	-333.593750
407903.836385	0.882306	85.253906	-333.593750
407903.838386	1.032380	85.253906	-333.593750
407903.840384	1.029195	11.321142	0.179437
407904.884397	0.792504	359.960937	30.761719
407904.886401	1.020144	359.960937	30.761719
407904.888400	1.027841	359.960937	30.761719
407904.890399	1.025295	11.278249	0.099607
407905.930473	0.377450	77.539062	-333.203125
407905.934473	0.990904	77.539062	-333.203125
407905.936477	1.028242	77.539062	-333.203125
407905.938477	1.025369	11.279063	0.134180
407906.946527	0.419052	380.273437	34.765625
407906.948530	0.751153	380.273437	34.765625
407906.950529	1.007322	380.273437	34.765625
407906.952531	1.027557	380.273437	34.765625
407906.954531	1.024790	11.272692	0.141963
407907.999493	1.023623	89.257812	-326.074219
407908.001493	1.026660	89.257812	-326.074219
407908.003493	1.024016	11.264175	0.184442
407909.044021	0.476566	373.339844	32.324219
407909.046024	0.806612	373.339844	32.324219
407909.048022	1.022621	373.339844	32.324219
407909.050023	1.027059	373.339844	32.324219
407909.052023	1.024524	11.269768	0.107696
407910.095003	0.871441	79.492187	-326.953125
407910.097006	0.877110	79.492187	-326.953125
407910.099007	1.026886	11.295743	0.136643
407911.107572	0.333241	378.808594	33.789062
407911.109574	0.668613	378.808594	33.789062
407911.111574	0.967429	378.808594	33.789062
407911.113575	1.028238	378.808594	33.789062
407911.115572	1.025022	11.275245	0.155783
407912.159571	0.896699	88.085937	-321.679687
407912.161573	1.027327	88.085937	-321.679687
407912.163572	1.023980	11.263785	0.194193
407913.206113	0.565995	374.414062	32.421875
407913.208115	0.890057	374.414062	32.421875
407913.210114	1.026506	374.414062	32.421875
407913.212115	1.023119	11.254312	0.106212
407914.255021	0.622111	75.878906	-320.117187
407914.257022	0.935891	75.878906	-320.117187
407914.259022	1.026916	75.878906	-320.117187
407914.261022	1.023377	11.257148	0.305132
407915.271111	0.667099	377.148437	32.519531
407915.273114	0.965712	377.148437	32.519531
407915.275114	0.969501	377.148437	32.519531
407915.277114	1.023231	11.255544	0.156483
407916.319173	0.580594	90.332031	-314.746094
407916.321175	0.902963	90.332031	-314.746094
407916.323176	1.026650	90.332031	-314.746094
407916.325175	1.023177	11.254950	0.204606
407917.367694	0.570882	367.187500	30.175781
407917.369695	0.894426	367.187500	30.175781
407917.371694	1.025429	367.187500	30.175781
407917.373695	1.022019	11.242206	0.112238
407918.417706	0.808274	81.152344	-314.257812
407918.419709	1.019967	81.152344	-314.257812
407918.421709	1.023544	81.152344	-314.257812
407918.425708	1.019417	11.213589	0.147885
407919.434255	0.917965	381.542969	33.398437
407919.436256	1.024442	381.542969	33.398437
407919.438255	1.020962	11.230578	0.216234
407920.480285	0.511699	87.792969	-309.472656
407920.482288	0.841025	87.792969	-309.472656
407920.484285	1.027305	87.792969	-309.472656
407920.486287	1.026645	11.293093	0.203735
407921.528348	0.427721	373.730469	30.566406
407921.530351	0.759435	373.730469	30.566406
407921.532348	1.009611	373.730469	30.566406
407921.534350	1.026729	373.730469	30.566406
407921.536349	1.023971	11.263680	0.116146
407922.578385	0.668759	80.566406	-307.617187
407922.580387	0.966880	80.566406	-307.617187
407922.582388	1.026775	80.566406	-307.617187
407922.584387	1.023478	11.258256	0.513610
407923.592983	0.467129	382.910156	32.421875
407923.594985	0.797180	382.910156	32.421875
407923.596986	1.019803	382.910156	32.421875
407923.598985	1.026110	382.910156	32.421875
407923.600984	1.023416	11.257572	0.174057
407924.641081	0.388573	86.914062	-303.808594
407924.643081	0.721215	86.914062	-303.808594
407924.645079	0.993798	86.914062	-303.808594
407924.647080	0.996244	86.914062	-303.808594
407924.649079	1.022411	11.246522	0.213983
407925.691054	0.621292	382.421875	31.835937
407925.693056	0.935442	382.421875	31.835937
407925.695057	1.027260	382.421875	31.835937
407925.697058	1.023735	11.261083	0.271745
407926.737994	0.346713	76.464844	-300.097656
407926.739998	0.680385	76.464844	-300.097656
407926.741998	0.971907	76.464844	-300.097656
407926.743998	1.023797	76.464844	-300.097656
407926.745999	1.020702	11.227725	0.162934
407927.754022	0.383914	394.628906	34.570312
407927.756026	0.715084	394.628906	34.570312
407927.758023	0.987691	394.628906	34.570312
407927.760025	1.020462	394.628906	34.570312
407927.762024	1.017594	11.193534	0.176595
407928.804077	0.630440	92.285156	-295.117187
407928.806078	0.939895	92.285156	-295.117187
407928.808079	1.022815	92.285156	-295.117187
407928.812078	1.017471	11.192178	0.216166
407929.852667	0.629734	386.132812	32.519531
407929.854667	0.939002	386.132812	32.519531
407929.856668	1.022067	386.132812	32.519531
407929.858668	1.018740	11.206137	0.324204
407930.900662	0.534999	76.171875	-295.117187
407930.902662	0.861038	76.171875	-295.117187
407930.904664	1.022724	76.171875	-295.117187
407930.906663	1.020432	11.224756	0.154317
407931.916672	0.569255	397.070312	35.058594
407931.918674	0.892585	397.070312	35.058594
407931.920673	1.024418	397.070312	35.058594
407931.922674	1.021091	11.231997	0.181329
407932.966691	0.806707	93.945312	-289.355469
407932.968694	1.018110	93.945312	-289.355469
407932.970692	1.021742	93.945312	-289.355469
407932.972696	1.019372	11.213093	0.217744
407934.012756	0.392474	386.523437	31.445312
407934.014757	0.723941	386.523437	31.445312
407934.016757	0.993306	386.523437	31.445312
407934.018757	1.022865	386.523437	31.445312
407934.020757	1.020094	11.221033	0.133632
407935.060806	0.300976	79.492187	-291.699219
407935.062808	0.636409	79.492187	-291.699219
407935.064809	0.944142	79.492187	-291.699219
407935.066809	1.023229	79.492187	-291.699219
407935.068809	1.019886	11.218747	0.163871
407936.078833	0.673400	400.781250	35.058594
407936.080833	0.968983	400.781250	35.058594
407936.086833	1.019801	400.781250	35.058594
407936.088835	1.018428	11.202706	0.571470
407937.126861	0.581277	87.207031	-290.625000
407937.128861	0.595938	87.207031	-290.625000
407937.130863	1.029870	87.207031	-290.625000
407937.132862	1.026361	11.289973	0.220534
407938.176913	0.826505	386.132812	30.371094
407938.178911	1.026852	386.132812	30.371094
407938.180911	1.027926	386.132812	30.371094
407938.182911	1.025537	11.280907	0.141501
407939.222883	0.395983	78.515625	-289.648437
407939.224885	0.728639	78.515625	-289.648437
407939.226885	0.997923	78.515625	-289.648437
407939.228884	1.026888	78.515625	-289.648437
407939.230885	1.024008	11.264087	0.167436
407940.272929	0.639733	380.468750	28.710937
407940.276930	1.027907	380.468750	28.710937
407940.278932	1.024499	380.468750	28.710937
407940.280933	1.022370	11.246070	0.344040
407941.320980	0.553391	65.820312	-282.714844
407941.322981	0.880077	65.820312	-282.714844
407941.324979	1.029407	65.820312	-282.714844
407941.326980	1.026436	11.290798	0.119744
407942.337052	0.598048	388.574219	29.589844
407942.339053	0.918514	388.574219	29.589844
407942.341053	1.030624	388.574219	29.589844
407942.343054	1.026989	11.296878	0.156486
407943.387113	0.841971	76.757812	-292.187500
407943.389115	1.026783	76.757812	-292.187500
407943.391116	1.026024	11.286260	0.162523
407944.433147	0.422890	386.914062	28.320312
407944.435149	0.754830	386.914062	28.320312
407944.437148	1.008443	386.914062	28.320312
407944.439149	1.027301	386.914062	28.320312
407944.441148	1.024536	11.269900	0.102734
407945.481670	1.102263	66.015625	-286.328125
407945.483672	0.746378	66.015625	-286.328125
407945.485672	1.005343	66.015625	-286.328125
407945.487673	1.008073	66.015625	-286.328125
407945.489672	1.024607	11.270680	0.121787
407946.497743	0.458591	393.847656	28.710937
407946.499743	0.789042	393.847656	28.710937
407946.501743	1.018165	393.847656	28.710937
407946.503744	1.026608	393.847656	28.710937
407946.505742	1.023891	11.262802	0.157233
407947.547832	0.596176	79.589844	-291.699219
407947.549830	0.989047	79.589844	-291.699219
407947.551832	1.026779	79.589844	-291.699219
407947.553832	1.023710	11.260807	0.172430
407948.596368	0.702169	381.738281	26.074219
407948.598372	0.985491	381.738281	26.074219
407948.600372	1.026705	381.738281	26.074219
407948.602370	1.023628	11.259912	0.626972
407949.644352	0.605126	70.898437	-290.625000
407949.646351	0.924048	70.898437	-290.625000
407949.648354	1.032105	70.898437	-290.625000
407949.650353	1.028294	11.311234	0.126504
407950.658905	0.395650	398.535156	28.027344
407950.660907	0.728157	398.535156	28.027344
407950.662906	0.997021	398.535156	28.027344
407950.664907	1.025823	398.535156	28.027344
407950.666907	1.022849	11.251343	0.167344
407951.708957	0.642121	80.761719	-291.796875
407951.710959	0.949947	80.761719	-291.796875
407951.714957	1.023635	80.761719	-291.796875
407951.716958	1.021575	11.237322	0.173236
407952.755512	0.302347	394.921875	26.269531
407952.757514	0.639109	394.921875	26.269531
407952.759514	0.948317	394.921875	26.269531
407952.761515	1.027952	394.921875	26.269531
407952.763514	1.024549	11.270034	0.115896
407953.806051	0.632843	72.265625	-289.843750
407953.808051	0.944201	72.265625	-289.843750
407953.810052	1.028466	72.265625	-289.843750
407953.812054	1.024977	11.274748	0.325719
407954.823010	0.821297	399.121094	26.562500
407954.825013	1.023722	399.121094	26.562500
407954.827012	1.025462	399.121094	26.562500
407954.829012	1.022827	11.251095	0.167401
407955.869076	0.403850	76.171875	-290.332031
407955.873075	0.744307	76.171875	-290.332031
407955.875078	1.025703	76.171875	-290.332031
407955.877078	1.022743	11.250173	0.179420
407956.919077	0.640923	398.535156	26.171875
407956.921081	0.948528	398.535156	26.171875
407956.923080	1.026036	398.535156	26.171875
407956.925079	1.022537	11.247904	0.118908
407957.967621	0.634361	72.460937	-288.183594
407957.969623	0.943703	72.460937	-288.183594
407957.971622	1.025264	72.460937	-288.183594
407957.973624	1.021728	11.239006	0.132524
407958.984214	0.762106	401.562500	26.171875
407958.986218	1.008209	401.562500	26.171875
407958.988215	1.023570	401.562500	26.171875
407958.990217	1.020869	11.229559	0.171585
407960.032230	0.672352	80.859375	-285.351562
407960.034233	0.967901	80.859375	-285.351562
407960.036233	1.024671	80.859375	-285.351562
407960.038231	1.021356	11.234921	0.186963
407961.082834	0.970040	390.429687	24.218750
407961.084836	1.024820	390.429687	24.218750
407961.086835	1.021630	11.237926	0.123905
407962.130850	0.903435	71.875000	-282.519531
407962.132849	1.026334	71.875000	-282.519531
407962.134851	1.022811	11.250917	0.130723
407963.143413	0.377664	407.031250	26.171875
407963.145415	0.709871	407.031250	26.171875
407963.147415	0.987605	407.031250	26.171875
407963.149414	1.024233	407.031250	26.171875
407963.151414	1.021245	11.233698	0.186202
407964.193518	0.630396	81.835937	-280.664062
407964.195522	0.940912	81.835937	-280.664062
407964.197521	1.025112	81.835937	-280.664062
407964.199522	1.021551	11.237057	0.382990
407965.242061	0.625345	393.457031	23.730469
407965.244064	0.937361	393.457031	23.730469
407965.246064	1.025497	393.457031	23.730469
407965.248063	1.021971	11.241682	0.127200
407966.290101	0.538447	72.265625	-275.585937
407966.292103	0.865178	72.265625	-275.585937
407966.294105	1.025535	72.265625	-275.585937
407966.298102	1.022910	11.252007	0.135103
407967.306109	0.570724	407.031250	26.171875
407967.308110	0.894273	407.031250	26.171875
407967.310112	1.025640	407.031250	26.171875
407967.312111	1.022301	11.245316	0.185324
407968.354139	0.481450	86.132812	-272.167969
407968.356141	0.809841	86.132812	-272.167969
407968.358142	1.019343	86.132812	-272.167969
407968.360142	1.022488	86.132812	-272.167969
407968.362141	1.020117	11.221291	0.192890
407969.402182	0.391291	402.148437	25.195312
407969.404184	0.722274	402.148437	25.195312
407969.406185	0.991872	402.148437	25.195312
407969.408185	1.021855	402.148437	25.195312
407969.410185	1.019076	11.209832	0.128127
407970.454238	0.940587	72.363281	-268.066406
407970.456239	1.021413	72.363281	-268.066406
407970.458239	1.018119	11.199312	0.352666
407971.468264	0.668928	407.519531	26.171875
407971.470266	0.962991	407.519531	26.171875
407971.472265	1.020010	407.519531	26.171875
407971.474264	1.016894	11.185833	0.556155
407972.516329	0.585440	83.691406	-264.453125
407972.520329	1.022128	83.691406	-264.453125
407972.522331	1.018838	83.691406	-264.453125
407972.524331	1.018768	11.206446	0.200806
407973.564907	0.588044	406.542969	25.781250
407973.566907	0.906769	406.542969	25.781250
407973.568907	1.021018	406.542969	25.781250
407973.570908	1.017599	11.193587	0.138030
407974.615482	0.906688	76.171875	-259.375000
407974.617483	1.022178	76.171875	-259.375000
407974.619483	1.018855	11.207403	0.142848
407975.628007	0.375168	413.281250	27.148437
407975.630007	0.707089	413.281250	27.148437
407975.632007	0.985118	413.281250	27.148437
407975.634007	1.022046	413.281250	27.148437
407975.636008	1.019249	11.211738	0.201365
407976.680035	0.931336	84.863281	-255.664062
407976.682038	1.024532	84.863281	-255.664062
407976.684037	1.021080	11.231881	0.213252
407977.730586	1.024909	398.339844	25.097656
407977.732588	1.021385	11.235240	0.252241
407978.774624	0.522789	77.246094	-249.121094
407978.778624	1.024636	77.246094	-249.121094
407978.780625	1.022932	77.246094	-249.121094
407978.782625	1.020638	11.227015	0.154294
407979.789643	0.391193	420.703125	29.101562
407979.791645	0.722814	420.703125	29.101562
407979.793644	0.993203	420.703125	29.101562
407979.795645	1.023540	420.703125	29.101562
407979.799642	1.018952	11.208467	0.202719
407980.842215	0.992315	85.449219	-243.164062
407980.844217	1.022969	85.449219	-243.164062
407980.846217	1.020191	11.222096	0.216957
407981.886792	0.391248	411.328125	27.441406
407981.888795	0.722407	411.328125	27.441406
407981.890797	0.992431	411.328125	27.441406
407981.892796	1.022649	411.328125	27.441406
407981.894796	1.019948	11.219429	0.148308
407982.935758	0.456411	75.781250	-234.570312
407982.937760	0.784758	75.781250	-234.570312
407982.939760	1.012090	75.781250	-234.570312
407982.941760	1.020443	75.781250	-234.570312
407982.943761	1.017935	11.197283	0.151482
407983.985745	0.689681	398.437500	25.781250
407983.987748	0.975517	398.437500	25.781250
407983.989748	1.021173	398.437500	25.781250
407983.991748	1.018278	11.201058	0.103210
407985.000334	0.488112	80.371094	-231.347656
407985.002336	0.815019	80.371094	-231.347656
407985.004336	1.016987	80.371094	-231.347656
407985.006336	1.018954	80.371094	-231.347656
407985.008335	1.016470	11.181170	0.232862
407986.050383	0.729610	411.132812	28.125000
407986.052384	0.737734	411.132812	28.125000
407986.054386	1.019275	411.132812	28.125000
407986.056385	1.016404	11.180445	0.148178
407987.096889	0.387408	79.980469	-223.925781
407987.098892	0.717651	79.980469	-223.925781
407987.100891	0.988140	79.980469	-223.925781
407987.102892	1.019299	79.980469	-223.925781
407987.104892	1.016431	11.180737	0.171633
407988.145449	0.386422	391.894531	24.707031
407988.147452	0.716848	391.894531	24.707031
407988.149452	0.988349	391.894531	24.707031
407988.151452	1.020410	391.894531	24.707031
407988.153451	1.017544	11.192985	0.109747
407989.195461	0.622519	74.023437	-214.550781
407989.197463	0.934043	74.023437	-214.550781
407989.199463	1.022625	74.023437	-214.550781
407989.201463	1.019341	11.212747	0.294511
407990.209476	0.325299	407.421875	27.832031
407990.211478	0.658775	407.421875	27.832031
407990.213476	0.958155	407.421875	27.832031
407990.215478	1.021926	407.421875	27.832031
407990.219476	1.016842	11.185257	0.154426
407991.259509	0.567287	79.199219	-212.597656
407991.261512	0.890164	79.199219	-212.597656
407991.265511	1.020705	79.199219	-212.597656
407991.267515	1.018530	11.203832	0.171213
407992.307513	0.473761	397.753906	25.976562
407992.309515	0.801480	397.753906	25.976562
407992.311516	1.016214	397.753906	25.976562
407992.313517	1.020713	397.753906	25.976562
407992.317514	1.016584	11.182421	0.102826
407993.355574	0.389084	72.070312	-199.609375
407993.357575	0.720120	72.070312	-199.609375
407993.359575	0.991047	72.070312	-199.609375
407993.361575	1.021973	72.070312	-199.609375
407993.363575	1.019206	11.211267	0.121245
407994.371615	0.425938	414.941406	29.003906
407994.373616	0.755543	414.941406	29.003906
407994.375617	1.004347	414.941406	29.003906
407994.377616	1.021186	414.941406	29.003906
407994.379614	1.018522	11.203744	0.155442
