time (s)	coil I (A)	last det (V)	int current (uC)
409635.493347	0.764543	9.472656	-601.074219
409635.495349	1.083849	9.472656	-601.074219
409635.497349	1.314304	9.472656	-601.074219
409635.501346	1.325870	9.472656	-601.074219
409635.507346	1.321152	14.532673	0.004615
409636.507891	0.551718	174.121094	55.957031
409636.509893	0.881322	174.121094	55.957031
409636.511894	1.191047	174.121094	55.957031
409636.513893	1.330274	174.121094	55.957031
409636.515894	1.326652	14.593177	0.008135
409637.554877	0.282251	10.351562	-594.628906
409637.556881	0.622554	10.351562	-594.628906
409637.558881	0.949428	10.351562	-594.628906
409637.560881	1.245632	10.351562	-594.628906
409637.562880	1.331109	10.351562	-594.628906
409637.564883	1.326938	14.596313	0.013904
409638.607468	0.949399	170.410156	50.488281
409638.609471	1.245647	170.410156	50.488281
409638.611475	1.330773	170.410156	50.488281
409638.613472	1.326606	14.592670	0.146608
409639.653980	0.613954	5.859375	-603.027344
409639.655982	0.941314	5.859375	-603.027344
409639.657981	1.240337	5.859375	-603.027344
409639.659982	1.332252	5.859375	-603.027344
409639.661984	1.328128	14.609403	0.007605
409640.670527	0.736988	179.492187	52.246094
409640.672529	1.057464	179.492187	52.246094
409640.674529	1.304484	179.492187	52.246094
409640.676529	1.328247	179.492187	52.246094
409640.678531	1.324862	14.573483	0.012191
409641.718542	0.641802	8.593750	-593.945312
409641.720543	0.967118	8.593750	-593.945312
409641.722544	1.257291	8.593750	-593.945312
409641.726541	1.325549	8.593750	-593.945312
409641.728551	1.325325	14.578571	0.015972
409642.769087	0.961956	170.898437	47.949219
409642.771089	1.253556	170.898437	47.949219
409642.773091	1.328713	170.898437	47.949219
409642.775091	1.324626	14.570887	0.008692
409643.813647	0.292942	9.863281	-602.246094
409643.815651	0.632352	9.863281	-602.246094
409643.817651	0.958197	9.863281	-602.246094
409643.819649	1.251509	9.863281	-602.246094
409643.821651	1.330739	9.863281	-602.246094
409643.823654	1.326669	14.593353	0.009493
409644.831704	0.674813	174.707031	52.246094
409644.833704	0.998820	174.707031	52.246094
409644.835704	1.277107	174.707031	52.246094
409644.837705	1.329522	174.707031	52.246094
409644.839703	1.325766	14.583427	0.007570
409645.880266	0.672752	19.726562	-589.453125
409645.882268	0.996561	19.726562	-589.453125
409645.884269	1.275271	19.726562	-589.453125
409645.886267	1.328621	19.726562	-589.453125
409645.888266	1.328478	14.613257	0.017679
409646.928839	0.672154	168.945312	52.441406
409646.930839	0.996063	168.945312	52.441406
409646.932840	1.275203	168.945312	52.441406
409646.934839	1.329452	168.945312	52.441406
409646.936841	1.325680	14.582479	0.392378
409647.976858	0.576837	16.601562	-603.417969
409647.978859	0.905769	16.601562	-603.417969
409647.980860	1.211981	16.601562	-603.417969
409647.982858	1.331603	16.601562	-603.417969
409647.984859	1.327568	14.603252	0.012764
409648.991412	0.367753	173.242187	53.906250
409648.993414	0.703920	173.242187	53.906250
409648.999413	1.328478	173.242187	53.906250
409649.001416	1.324943	173.242187	53.906250
409649.003416	1.322791	14.550699	0.007699
409650.039427	0.266677	16.308594	-599.414062
409650.041427	0.607854	16.308594	-599.414062
409650.043427	0.935245	16.308594	-599.414062
409650.045427	1.235429	16.308594	-599.414062
409650.047427	1.332564	16.308594	-599.414062
409650.049427	1.328355	14.611902	0.018029
409651.089443	0.515984	173.046875	51.367187
409651.091445	0.846614	173.046875	51.367187
409651.093446	1.159372	173.046875	51.367187
409651.095446	1.328508	173.046875	51.367187
409651.097444	1.326621	14.592831	0.009063
409652.137448	0.420648	10.546875	-606.933594
409652.141450	1.074367	10.546875	-606.933594
409652.143451	1.310514	10.546875	-606.933594
409652.145450	1.328218	10.546875	-606.933594
409652.149450	1.322814	14.550957	0.009584
409653.186422	0.487122	171.191406	46.875000
409653.188424	0.818875	171.191406	46.875000
409653.192422	1.325898	171.191406	46.875000
409653.194424	1.327619	171.191406	46.875000
409653.196423	1.324664	14.571304	0.005421
409654.204441	0.854213	12.402344	-598.828125
409654.206444	1.166751	12.402344	-598.828125
409654.208443	1.329954	12.402344	-598.828125
409654.212440	1.324710	14.571809	0.014624
409655.251370	0.581660	173.242187	46.289062
409655.253372	0.910282	173.242187	46.289062
409655.255373	1.215606	173.242187	46.289062
409655.257373	1.331086	173.242187	46.289062
409655.259373	1.327096	14.598051	0.009889
409656.299413	0.492972	8.691406	-610.351562
409656.301416	0.824440	8.691406	-610.351562
409656.303415	1.139042	8.691406	-610.351562
409656.305415	1.327150	8.691406	-610.351562
409656.307416	1.328057	8.691406	-610.351562
409656.309415	1.325022	14.575239	0.012651
409657.315425	0.526554	181.054687	50.292969
409657.317425	0.857058	181.054687	50.292969
409657.319427	1.169292	181.054687	50.292969
409657.321425	1.330628	181.054687	50.292969
409657.323425	1.328102	14.609119	0.013003
409658.395991	0.396739	10.839844	-615.429687
409658.397992	0.731917	10.839844	-615.429687
409658.399993	1.052858	10.839844	-615.429687
409658.401992	1.302856	10.839844	-615.429687
409658.403993	1.328504	10.839844	-615.429687
409658.405992	1.325105	14.576159	0.008348
409659.412028	0.433820	173.632812	48.632812
409659.414029	0.767547	173.632812	48.632812
409659.416031	1.086637	173.632812	48.632812
409659.418029	1.314567	173.632812	48.632812
409659.420031	1.328342	173.632812	48.632812
409659.422032	1.325075	14.575824	0.006372
409660.460575	0.430419	18.652344	-603.320312
409660.462577	0.764034	18.652344	-603.320312
409660.464577	1.083094	18.652344	-603.320312
409660.466576	1.313149	18.652344	-603.320312
409660.468576	1.327805	18.652344	-603.320312
409660.470577	1.324547	14.570019	0.011792
409661.476580	0.463913	175.585937	50.976562
409661.478583	0.796288	175.585937	50.976562
409661.480581	1.113005	175.585937	50.976562
409661.482582	1.321109	175.585937	50.976562
409661.486582	1.323938	175.585937	50.976562
409661.488587	1.322025	14.542279	0.009926
409662.560599	0.904551	14.257812	-620.019531
409662.564599	1.331428	14.257812	-620.019531
409662.566602	1.327375	14.257812	-620.019531
409662.568601	1.324724	14.571969	0.007376
409663.574615	0.611736	173.828125	50.683594
409663.576617	0.938639	173.828125	50.683594
409663.578618	1.237628	173.828125	50.683594
409663.580616	1.330640	173.828125	50.683594
409663.582616	1.326511	14.591616	0.006611
409664.623161	0.606891	21.093750	-605.468750
409664.625164	0.934110	21.093750	-605.468750
409664.627162	1.234253	21.093750	-605.468750
409664.629163	1.331093	21.093750	-605.468750
409664.631163	1.326946	14.596410	0.017062
409665.639184	0.642646	177.148437	52.148437
409665.641184	0.968325	177.148437	52.148437
409665.643184	1.258341	177.148437	52.148437
409665.645183	1.329831	177.148437	52.148437
409665.647183	1.325757	14.583330	0.263911
409666.719191	0.418694	16.406250	-619.335937
409666.721193	0.752705	16.406250	-619.335937
409666.723194	1.072335	16.406250	-619.335937
409666.725194	1.309489	16.406250	-619.335937
409666.727193	1.327596	16.406250	-619.335937
409666.729195	1.324285	14.567138	0.012472
409667.735172	0.447278	176.464844	51.464844
409667.737174	0.780134	176.464844	51.464844
409667.739174	1.097924	176.464844	51.464844
409667.741173	1.317551	176.464844	51.464844
409667.743174	1.327644	176.464844	51.464844
409667.745174	1.324409	14.568494	0.004614
409668.786115	0.840036	18.750000	-616.210937
409668.788118	1.153415	18.750000	-616.210937
409668.790122	1.328719	18.750000	-616.210937
409668.792123	1.327543	14.602977	0.017514
409669.834151	0.753522	171.093750	47.753906
409669.836151	1.073213	171.093750	47.753906
409669.838152	1.310410	171.093750	47.753906
409669.840151	1.328661	171.093750	47.753906
409669.842151	1.325357	14.578925	0.002334
409670.880736	0.420370	18.164062	-619.335937
409670.882738	0.754408	18.164062	-619.335937
409670.884739	1.074065	18.164062	-619.335937
409670.886738	1.310678	18.164062	-619.335937
409670.888737	1.328536	18.164062	-619.335937
409670.890737	1.325178	14.576959	0.010834
409671.896741	0.453784	178.515625	51.367187
409671.900740	1.103794	178.515625	51.367187
409671.902741	1.318914	178.515625	51.367187
409671.904742	1.327240	178.515625	51.367187
409671.906743	1.324144	14.565588	0.004474
409672.947717	0.850424	19.335937	-617.285156
409672.949722	1.162918	19.335937	-617.285156
409672.951721	1.328607	19.335937	-617.285156
409672.953719	1.326532	14.591856	0.014343
409673.995728	0.759363	171.191406	46.582031
409673.997731	1.078563	171.191406	46.582031
409673.999731	1.311383	171.191406	46.582031
409674.001731	1.327291	171.191406	46.582031
409674.003729	1.324094	14.565029	0.002664
409675.041793	0.336247	16.699219	-624.218750
409675.043796	0.673516	16.699219	-624.218750
409675.045795	0.997260	16.699219	-624.218750
409675.047797	1.275829	16.699219	-624.218750
409675.049794	1.329025	16.699219	-624.218750
409675.051795	1.325216	14.577374	0.013853
409676.059829	0.711055	175.976562	46.484375
409676.063829	1.293996	175.976562	46.484375
409676.065832	1.328314	175.976562	46.484375
409676.067831	1.324792	14.572712	0.008642
409677.109864	0.947452	17.773437	-617.382812
409677.111869	1.243875	17.773437	-617.382812
409677.113867	1.330157	17.773437	-617.382812
409677.115866	1.326033	14.586360	0.159070
409678.155877	0.529051	177.734375	44.921875
409678.157879	0.859150	177.734375	44.921875
409678.159880	1.170966	177.734375	44.921875
409678.161880	1.329780	177.734375	44.921875
409678.163880	1.327125	14.598378	0.006155
409679.203936	0.441825	12.011719	-627.050781
409679.205935	0.774796	12.011719	-627.050781
409679.207937	1.092932	12.011719	-627.050781
409679.209936	1.315401	12.011719	-627.050781
409679.211936	1.326777	12.011719	-627.050781
409679.213936	1.323612	14.559729	0.012621
409680.221945	0.807701	182.812500	45.605469
409680.223947	0.823949	182.812500	45.605469
409680.225952	1.322964	182.812500	45.605469
409680.227955	1.326483	182.812500	45.605469
409680.229957	1.323588	14.559464	0.011507
409681.267933	0.376594	15.625000	-618.554687
409681.269935	0.713359	15.625000	-618.554687
409681.271934	1.035766	15.625000	-618.554687
409681.273934	1.296692	15.625000	-618.554687
409681.275935	1.330597	15.625000	-618.554687
409681.277934	1.330441	14.634847	0.013111
409682.318890	0.774669	183.496094	46.582031
409682.320890	1.093130	183.496094	46.582031
409682.322894	1.316156	183.496094	46.582031
409682.324898	1.327674	183.496094	46.582031
409682.326899	1.327395	14.601347	0.008075
409683.367459	0.773326	13.671875	-628.417969
409683.369462	1.091629	13.671875	-628.417969
409683.371462	1.315249	13.671875	-628.417969
409683.373462	1.327037	13.671875	-628.417969
409683.375462	1.323878	14.562654	0.006762
409684.382035	0.568604	186.035156	49.707031
409684.384037	0.897617	186.035156	49.707031
409684.386037	1.205107	186.035156	49.707031
409684.388036	1.332327	186.035156	49.707031
409684.390039	1.328375	14.612123	0.013452
409685.430111	0.485893	18.652344	-625.000000
409685.432116	0.817495	18.652344	-625.000000
409685.434123	1.132776	18.652344	-625.000000
409685.436130	1.325168	18.652344	-625.000000
409685.438131	1.326697	18.652344	-625.000000
409685.440129	1.323729	14.561014	0.014463
409686.478195	0.402577	178.125000	48.437500
409686.480199	0.737078	178.125000	48.437500
409686.484195	1.304227	178.125000	48.437500
409686.486197	1.327739	178.125000	48.437500
409686.488197	1.324378	14.568158	0.008029
409687.528189	0.640737	19.433594	-631.542969
409687.530191	0.966141	19.433594	-631.542969
409687.534191	1.329127	19.433594	-631.542969
409687.536191	1.325076	19.433594	-631.542969
409687.538191	1.322808	14.550886	0.010985
409688.542217	0.339948	184.863281	51.562500
409688.546217	1.000208	184.863281	51.562500
409688.548220	1.276856	184.863281	51.562500
409688.552217	1.324052	184.863281	51.562500
409688.554220	1.321802	14.539824	0.009875
409689.590773	0.336044	26.171875	-618.750000
409689.592776	0.673242	26.171875	-618.750000
409689.594776	0.996755	26.171875	-618.750000
409689.596775	1.275059	26.171875	-618.750000
409689.598776	1.327996	26.171875	-618.750000
409689.600774	1.324205	14.566253	0.023603
409690.640813	0.584198	179.785156	47.851562
409690.642814	0.912883	179.785156	47.851562
409690.644813	1.217904	179.785156	47.851562
409690.646814	1.331122	179.785156	47.851562
409690.648814	1.327016	14.597181	0.005212
409691.689395	0.582065	22.656250	-627.148437
409691.691398	0.910940	22.656250	-627.148437
409691.693397	1.216228	22.656250	-627.148437
409691.695397	1.330940	22.656250	-627.148437
409691.697398	1.326822	14.595037	0.012465
409692.703938	0.369185	183.496094	46.777344
409692.707939	1.027234	183.496094	46.777344
409692.711941	1.327705	183.496094	46.777344
409692.713941	1.324147	183.496094	46.777344
409692.715941	1.321917	14.541092	0.008447
409693.751938	0.267693	22.558594	-621.875000
409693.753937	0.608591	22.558594	-621.875000
409693.755938	0.935877	22.558594	-621.875000
409693.757938	1.235842	22.558594	-621.875000
409693.759938	1.332335	22.558594	-621.875000
409693.761938	1.328170	14.609872	0.020813
409694.803976	0.849381	184.570312	44.238281
409694.805977	0.865489	184.570312	44.238281
409694.807978	1.329581	184.570312	44.238281
409694.809978	1.327567	14.603234	0.008230
409695.852530	0.845560	14.746094	-638.085937
409695.854536	1.158563	14.746094	-638.085937
409695.856535	1.329657	14.746094	-638.085937
409695.858535	1.328087	14.608959	0.006798
409696.868562	0.882555	195.507812	47.656250
409696.870565	1.191901	195.507812	47.656250
409696.872563	1.330855	195.507812	47.656250
409696.874564	1.327243	14.599672	0.011227
409697.916554	0.788910	19.140625	-626.757812
409697.918555	1.106180	19.140625	-626.757812
409697.920556	1.319628	19.140625	-626.757812
409697.922555	1.327401	19.140625	-626.757812
409697.924556	1.324324	14.567564	0.019204
409698.962615	0.368701	189.941406	45.898437
409698.964616	0.704738	189.941406	45.898437
409698.966616	1.027082	189.941406	45.898437
409698.968617	1.291451	189.941406	45.898437
409698.970616	1.328798	189.941406	45.898437
409698.972617	1.325305	14.578359	0.011751
409700.012615	0.606685	15.234375	-638.867187
409700.014615	0.933886	15.234375	-638.867187
409700.016616	1.233971	15.234375	-638.867187
409700.018617	1.330448	15.234375	-638.867187
409700.020615	1.326265	14.588913	0.091938
409701.028649	0.647168	199.414062	50.488281
409701.032650	1.260641	199.414062	50.488281
409701.034650	1.329243	199.414062	50.488281
409701.036650	1.325270	14.577968	0.015260
409702.076669	0.553080	21.289062	-628.027344
409702.078671	0.882436	21.289062	-628.027344
409702.080672	1.191863	21.289062	-628.027344
409702.082671	1.330336	21.289062	-628.027344
409702.084672	1.326682	14.593504	0.016611
409703.125239	0.551908	194.042969	48.242187
409703.127240	0.881509	194.042969	48.242187
409703.129240	1.191025	194.042969	48.242187
409703.131240	1.330030	194.042969	48.242187
409703.133241	1.326360	14.589958	0.008339
409704.173260	0.458203	19.531250	-634.960937
409704.177261	1.107917	19.531250	-634.960937
409704.179263	1.319938	19.531250	-634.960937
409704.183262	1.324082	19.531250	-634.960937
409704.185263	1.322133	14.543459	0.009292
409705.189274	0.494699	200.000000	50.781250
409705.191277	0.826193	200.000000	50.781250
409705.193278	1.140588	200.000000	50.781250
409705.195276	1.326248	200.000000	50.781250
409705.197278	1.326653	200.000000	50.781250
409705.199277	1.323721	14.560936	0.015964
409706.237299	0.401391	22.070312	-630.273437
409706.239302	0.736109	22.070312	-630.273437
409706.241301	1.056697	22.070312	-630.273437
409706.243301	1.303811	22.070312	-630.273437
409706.245300	1.327697	22.070312	-630.273437
409706.247302	1.324372	14.568088	0.017752
409707.287321	0.641859	192.675781	47.460937
409707.289325	0.967127	192.675781	47.460937
409707.291324	1.256999	192.675781	47.460937
409707.293323	1.328728	192.675781	47.460937
409707.295325	1.324670	14.571375	0.014526
409708.335328	0.547831	18.750000	-640.820312
409708.337329	0.877760	18.750000	-640.820312
409708.339329	1.187820	18.750000	-640.820312
409708.341331	1.330834	18.750000	-640.820312
409708.343329	1.327298	14.600275	0.014326
409709.351374	0.587827	196.191406	48.242187
409709.353373	0.915531	196.191406	48.242187
409709.355375	1.219271	196.191406	48.242187
409709.357373	1.330210	196.191406	48.242187
409709.359373	1.326159	14.587751	0.018446
409710.399387	0.493310	23.730469	-629.882812
409710.401388	0.824516	23.730469	-629.882812
409710.403389	1.138835	23.730469	-629.882812
409710.405389	1.326078	23.730469	-629.882812
409710.407390	1.326797	23.730469	-629.882812
409710.409389	1.323829	14.562122	0.023583
409711.447908	0.484255	197.558594	46.972656
409711.449911	0.816124	197.558594	46.972656
409711.451912	1.131422	197.558594	46.972656
409711.453911	1.325271	197.558594	46.972656
409711.455911	1.327340	197.558594	46.972656
409711.457910	1.324313	14.567440	0.009865
409712.496866	0.548512	19.042969	-640.039062
409712.498868	0.878047	19.042969	-640.039062
409712.500868	1.187954	19.042969	-640.039062
409712.502869	1.330816	19.042969	-640.039062
409712.506867	1.324529	14.569823	0.011295
409713.513381	0.666382	203.222656	48.730469
409713.515383	0.990303	203.222656	48.730469
409713.517383	1.271340	203.222656	48.730469
409713.519382	1.328242	203.222656	48.730469
409713.521383	1.324396	14.568361	0.384465
409714.561402	0.574225	23.144531	-630.371094
409714.563404	0.903169	23.144531	-630.371094
409714.565403	1.209562	23.144531	-630.371094
409714.567404	1.330503	23.144531	-630.371094
409714.569404	1.326466	14.591128	0.020694
409715.609947	0.569792	195.507812	43.554687
409715.611950	0.898642	195.507812	43.554687
409715.613950	1.205707	195.507812	43.554687
409715.615949	1.329977	195.507812	43.554687
409715.617950	1.325948	14.585430	0.011419
409716.659973	0.809918	21.875000	-636.328125
409716.661974	1.125395	21.875000	-636.328125
409716.663974	1.323689	21.875000	-636.328125
409716.665976	1.326873	21.875000	-636.328125
409716.667982	1.326667	14.593335	0.010258
409717.672929	0.332664	202.343750	47.460937
409717.674931	0.669969	202.343750	47.460937
409717.676932	0.993765	202.343750	47.460937
409717.678932	1.273628	202.343750	47.460937
409717.680931	1.328637	202.343750	47.460937
409717.682933	1.324826	14.573085	0.016896
409718.724962	0.906934	29.199219	-624.902344
409718.728962	1.330184	29.199219	-624.902344
409718.730964	1.326188	29.199219	-624.902344
409718.732965	1.323604	14.559641	0.024082
409719.771508	0.573721	194.433594	45.703125
409719.773509	0.902419	194.433594	45.703125
409719.775510	1.208814	194.433594	45.703125
409719.777508	1.330018	194.433594	45.703125
409719.779509	1.325936	14.585297	0.009080
409720.819540	0.484068	27.734375	-635.449219
409720.821542	0.815596	27.734375	-635.449219
409720.823542	1.130632	27.734375	-635.449219
409720.825543	1.324232	27.734375	-635.449219
409720.827542	1.326201	27.734375	-635.449219
409720.829543	1.323227	14.555493	0.019976
409721.835610	0.527031	196.972656	48.242187
409721.837615	0.857401	196.972656	48.242187
409721.839618	1.170441	196.972656	48.242187
409721.841618	1.329736	196.972656	48.242187
409721.843619	1.327091	14.598006	0.017383
409722.883659	1.293716	33.984375	-623.437500
409722.885662	0.771719	33.984375	-623.437500
409722.887662	1.090031	33.984375	-623.437500
409722.889662	1.314300	33.984375	-623.437500
409722.891662	1.326333	33.984375	-623.437500
409722.893661	1.323178	14.554961	0.030863
409723.931674	0.342118	192.089844	47.656250
409723.933677	0.678998	192.089844	47.656250
409723.935678	1.002318	192.089844	47.656250
409723.937684	1.278036	192.089844	47.656250
409723.939688	1.327741	192.089844	47.656250
409723.941689	1.324106	14.565162	0.009574
409724.981733	0.593980	29.687500	-635.351562
409724.983735	0.921966	29.687500	-635.351562
409724.985735	1.224664	29.687500	-635.351562
409724.987736	1.329821	29.687500	-635.351562
409724.989734	1.325590	14.581486	0.036507
409725.997762	0.629421	195.996094	48.828125
409725.999763	0.955321	195.996094	48.828125
409726.001763	0.967578	195.996094	48.828125
409726.003762	1.329724	195.996094	48.828125
409726.005763	1.325572	14.581292	0.014753
409727.045783	0.536538	31.054687	-628.906250
409727.047786	0.866306	31.054687	-628.906250
409727.049786	1.177343	31.054687	-628.906250
409727.051792	1.329707	31.054687	-628.906250
409727.053796	1.326665	14.593318	0.026333
409728.093812	0.445112	195.507812	47.363281
409728.095812	0.777885	195.507812	47.363281
409728.099812	1.104018	195.507812	47.363281
409728.101813	1.327730	195.507812	47.363281
409728.103814	1.324568	14.570250	0.010243
409729.143887	0.696761	25.000000	-640.039062
409729.145886	1.019274	25.000000	-640.039062
409729.147887	1.287287	25.000000	-640.039062
409729.149888	1.328155	25.000000	-640.039062
409729.151892	1.324503	14.569531	0.018700
409730.158517	0.500391	203.710937	48.339844
409730.160519	0.831523	203.710937	48.339844
409730.162528	1.145372	203.710937	48.339844
409730.164525	1.328219	203.710937	48.339844
409730.166525	1.328036	14.608393	0.024626
409731.208589	0.749144	27.539062	-632.812500
409731.210593	1.068691	27.539062	-632.812500
409731.212592	1.307529	27.539062	-632.812500
409731.214591	1.326595	27.539062	-632.812500
409731.218592	1.321254	14.533798	0.026533
409732.255145	0.409354	202.539062	45.214844
409732.257147	0.743451	202.539062	45.214844
409732.259146	1.063333	202.539062	45.214844
409732.261146	1.306156	202.539062	45.214844
409732.263147	1.327369	202.539062	45.214844
409732.265146	1.324047	14.564515	0.018082
409733.303211	0.319406	23.144531	-642.675781
409733.305212	0.657609	23.144531	-642.675781
409733.307212	0.982196	23.144531	-642.675781
409733.309211	1.266572	23.144531	-642.675781
409733.311213	1.328470	23.144531	-642.675781
409733.313211	1.324570	14.570267	0.019832
409734.321265	0.700106	210.449219	47.558594
409734.323267	1.022223	210.449219	47.558594
409734.325267	1.288279	210.449219	47.558594
409734.327266	1.327320	210.449219	47.558594
409734.329267	1.323844	14.562283	0.025727
409735.367778	0.352605	26.855469	-632.812500
409735.369780	0.688950	26.855469	-632.812500
409735.371782	1.011800	26.855469	-632.812500
409735.373781	1.283213	26.855469	-632.812500
409735.375781	1.327882	26.855469	-632.812500
409735.379779	1.322013	14.542138	0.028352
409736.417829	0.601409	202.734375	43.945312
409736.419833	0.928664	202.734375	43.945312
409736.421835	1.230109	202.734375	43.945312
409736.423834	1.330242	202.734375	43.945312
409736.425835	1.326062	14.586680	0.066142
409737.465846	0.508975	25.878906	-641.308594
409737.467848	0.839779	25.878906	-641.308594
409737.469852	1.153026	25.878906	-641.308594
409737.471851	1.328020	25.878906	-641.308594
409737.473851	1.326772	14.594488	0.019405
409738.483885	0.875063	210.058594	46.679687
409738.485887	1.185129	210.058594	46.679687
409738.487887	1.328964	210.058594	46.679687
409738.489886	1.325530	14.580831	0.021773
409739.562872	0.487673	24.218750	-649.121094
409739.564872	0.819208	24.218750	-649.121094
409739.566873	1.134000	24.218750	-649.121094
409739.568874	1.325350	24.218750	-649.121094
409739.570872	1.326851	24.218750	-649.121094
409739.572873	1.323895	14.562849	0.014240
409740.580910	0.856587	202.929687	44.433594
409740.582912	1.168391	202.929687	44.433594
409740.584912	1.174553	202.929687	44.433594
409740.586911	1.325041	14.575452	0.011341
409741.627908	0.597893	30.859375	-636.230469
409741.629915	0.925387	30.859375	-636.230469
409741.631916	1.227953	30.859375	-636.230469
409741.633917	1.329914	30.859375	-636.230469
409741.635917	1.325721	14.582932	0.057095
409742.642877	0.457755	206.054687	45.996094
409742.644876	0.790197	206.054687	45.996094
409742.646879	1.107127	206.054687	45.996094
409742.648879	1.319187	206.054687	45.996094
409742.650879	1.326455	206.054687	45.996094
409742.652879	1.323443	14.557878	0.019198
409743.724878	0.566110	26.074219	-648.437500
409743.726881	0.894979	26.074219	-648.437500
409743.728880	1.202738	26.074219	-648.437500
409743.730881	1.330014	26.074219	-648.437500
409743.732881	1.326088	14.586973	0.017765
409744.740931	0.608692	204.785156	45.605469
409744.742933	0.936701	204.785156	45.605469
409744.744934	1.236286	204.785156	45.605469
409744.748931	1.326904	204.785156	45.605469
409744.750933	1.324453	14.568981	0.013866
409745.788916	0.510594	29.687500	-642.578125
409745.790918	0.841709	29.687500	-642.578125
409745.792921	1.154707	29.687500	-642.578125
409745.794919	1.327939	29.687500	-642.578125
409745.796919	1.326586	14.592449	0.025539
409746.806965	0.879618	210.644531	46.777344
409746.808969	1.189397	210.644531	46.777344
409746.810967	1.330254	210.644531	46.777344
409746.812966	1.326699	14.593691	0.021142
409747.887488	0.746567	28.125000	-646.386719
409747.889489	1.066488	28.125000	-646.386719
409747.893489	1.327726	28.125000	-646.386719
409747.895491	1.324442	28.125000	-646.386719
409747.897492	1.322374	14.546118	0.015901
409748.904085	0.874706	203.417969	42.968750
409748.906087	1.185065	203.417969	42.968750
409748.908088	1.329696	203.417969	42.968750
409748.910088	1.326323	14.589551	0.017477
409749.950142	0.458080	29.785156	-640.917969
409749.952144	0.790677	29.785156	-640.917969
409749.954145	1.107708	29.785156	-640.917969
409749.956146	1.319555	29.785156	-640.917969
409749.958151	1.326787	29.785156	-640.917969
409749.960148	1.323681	14.560493	0.026322
409750.968194	0.829600	215.625000	46.875000
409750.970201	1.143536	215.625000	46.875000
409750.972205	1.327426	215.625000	46.875000
409750.974212	1.327401	215.625000	46.875000
409750.976218	1.324406	14.568468	0.023255
409752.047167	0.436310	24.218750	-652.246094
409752.049169	0.769405	24.218750	-652.246094
409752.051170	1.087832	24.218750	-652.246094
409752.053171	1.313670	24.218750	-652.246094
409752.055171	1.326555	24.218750	-652.246094
409752.059183	1.321370	14.535067	0.014450
409753.063202	0.474610	210.937500	43.945312
409753.065203	0.806583	210.937500	43.945312
409753.067205	1.122267	210.937500	43.945312
409753.069203	1.322547	210.937500	43.945312
409753.071202	1.326216	210.937500	43.945312
409753.073202	1.323244	14.555689	0.014816
409754.113764	0.803818	28.222656	-641.015625
409754.115766	1.119636	28.222656	-641.015625
409754.117768	1.322004	28.222656	-641.015625
409754.119770	1.326196	28.222656	-641.015625
409754.121771	1.323245	14.555696	0.019592
409755.162365	0.808163	208.398437	42.382812
409755.164370	1.123746	208.398437	42.382812
409755.166369	1.140299	208.398437	42.382812
409755.168370	1.326777	208.398437	42.382812
409755.170368	1.323781	14.561591	0.010089
409756.208921	0.471666	23.339844	-653.222656
409756.210925	0.803489	23.339844	-653.222656
409756.212929	1.119954	23.339844	-653.222656
409756.214930	1.321938	23.339844	-653.222656
409756.216931	1.325884	23.339844	-653.222656
409756.218931	1.322856	14.551416	0.017171
409757.225452	0.591991	211.816406	43.847656
409757.227452	0.919997	211.816406	43.847656
409757.229452	1.223022	211.816406	43.847656
409757.231453	1.330507	211.816406	43.847656
409757.233452	1.326427	14.590694	0.020313
409758.273513	0.507203	26.953125	-646.972656
409758.275516	0.837916	26.953125	-646.972656
409758.277522	1.151130	26.953125	-646.972656
409758.281520	1.326509	26.953125	-646.972656
409758.283521	1.323696	14.560660	0.023617
409759.321554	0.418571	206.933594	43.261719
409759.323556	0.752604	206.933594	43.261719
409759.325556	1.072058	206.933594	43.261719
409759.327556	1.309132	206.933594	43.261719
409759.329556	1.327314	206.933594	43.261719
409759.333556	1.322020	14.542218	0.016064
409760.371551	0.655249	26.367187	-651.855469
409760.373551	0.979792	26.367187	-651.855469
409760.375552	1.264889	26.367187	-651.855469
409760.379551	1.324145	26.367187	-651.855469
409760.381552	1.321930	14.541235	0.016897
409761.385633	0.365878	211.328125	47.363281
409761.387636	0.701874	211.328125	47.363281
409761.389635	1.024009	211.328125	47.363281
409761.391635	1.289306	211.328125	47.363281
409761.393635	1.327785	211.328125	47.363281
409761.395634	1.324239	14.566624	0.022195
409762.435657	0.608718	33.789062	-640.429687
409762.439658	1.234986	33.789062	-640.429687
409762.441661	1.329560	33.789062	-640.429687
409762.443661	1.325392	14.579315	0.031027
409763.483705	0.520637	202.929687	44.628906
409763.485706	0.851224	202.929687	44.628906
409763.487706	1.163543	202.929687	44.628906
409763.489707	1.328193	202.929687	44.628906
409763.491706	1.325856	14.584419	0.016710
409764.533770	0.769068	33.007812	-645.214844
409764.537770	1.313514	33.007812	-645.214844
409764.539773	1.326401	33.007812	-645.214844
409764.541773	1.323282	14.556105	0.019329
409765.547791	0.472296	210.449219	46.972656
409765.549794	0.804524	210.449219	46.972656
409765.551796	1.120708	210.449219	46.972656
409765.553795	1.322294	210.449219	46.972656
409765.555795	1.326333	210.449219	46.972656
409765.557794	1.323338	14.556717	0.015425
409766.596400	0.477719	38.281250	-634.863281
409766.598402	0.809362	38.281250	-634.863281
409766.600402	1.124767	38.281250	-634.863281
409766.602402	1.322850	38.281250	-634.863281
409766.606402	1.323031	38.281250	-634.863281
409766.608404	1.320994	14.530935	0.027805
409767.644451	0.389024	203.613281	44.140625
409767.648450	1.045164	203.613281	44.140625
409767.650453	1.299060	203.613281	44.140625
409767.652453	1.327639	203.613281	44.140625
409767.654453	1.324274	14.567015	0.011549
409768.694490	0.633592	34.765625	-645.019531
409768.696493	0.959269	34.765625	-645.019531
409768.698493	1.252319	34.765625	-645.019531
409768.700493	1.330947	34.765625	-645.019531
409768.702493	1.326830	14.595125	0.227752
409769.710523	0.672366	207.617187	43.847656
409769.712525	0.996208	207.617187	43.847656
409769.714527	1.275058	207.617187	43.847656
409769.716526	1.328658	207.617187	43.847656
409769.718527	1.324934	14.574273	0.013956
409770.758489	0.567801	39.843750	-633.203125
409770.760493	0.896660	39.843750	-633.203125
409770.762490	1.203902	39.843750	-633.203125
409770.764492	1.329884	39.843750	-633.203125
409770.766492	1.325945	14.585395	0.030756
409771.807387	0.622083	210.156250	42.675781
409771.809388	0.948458	210.156250	42.675781
409771.811388	1.244400	210.156250	42.675781
409771.813387	1.329739	210.156250	42.675781
409771.817386	1.323107	14.554173	0.013329
409772.853943	0.275888	32.421875	-649.316406
409772.855944	0.616281	32.421875	-649.316406
409772.857947	0.943112	32.421875	-649.316406
409772.859943	1.240856	32.421875	-649.316406
409772.861944	1.330605	32.421875	-649.316406
409772.863945	1.326418	14.590597	0.022351
409773.869969	0.316829	212.988281	41.992187
409773.871970	0.655172	212.988281	41.992187
409773.873970	0.979955	212.988281	41.992187
409773.875970	1.265075	212.988281	41.992187
409773.877972	1.328654	212.988281	41.992187
409773.879968	1.324651	14.571162	0.019525
409774.920006	0.564323	33.398437	-644.140625
409774.922008	0.893269	33.398437	-644.140625
409774.924009	1.201260	33.398437	-644.140625
409774.926008	1.333150	33.398437	-644.140625
409774.928007	1.329218	14.621393	0.029005
409775.967968	0.462799	212.890625	40.136719
409775.969969	0.795287	212.890625	40.136719
409775.971971	1.111802	212.890625	40.136719
409775.973968	1.321029	212.890625	40.136719
409775.975970	1.327355	212.890625	40.136719
409775.977970	1.324201	14.566208	0.018077
409777.015957	0.361183	28.808594	-653.613281
409777.017960	0.697193	28.808594	-653.613281
409777.019960	1.019420	28.808594	-653.613281
409777.021959	1.287131	28.808594	-653.613281
409777.023959	1.327765	28.808594	-653.613281
409777.025960	1.324181	14.565996	0.018749
409778.033992	0.736475	223.242187	43.554687
409778.035995	1.056752	223.242187	43.554687
409778.037996	1.303614	223.242187	43.554687
409778.039996	1.327476	223.242187	43.554687
409778.041994	1.324160	14.565765	0.719583
409779.082041	0.647550	29.980469	-650.292969
409779.084043	0.972554	29.980469	-650.292969
409779.086043	1.260349	29.980469	-650.292969
409779.088042	1.328210	29.980469	-650.292969
409779.090044	1.324268	14.566944	0.026228
409780.130061	0.555120	219.238281	41.601562
409780.132063	0.884589	219.238281	41.601562
409780.134062	1.193591	219.238281	41.601562
409780.136062	1.330541	219.238281	41.601562
409780.138062	1.326847	14.595321	0.014276
409781.178983	0.613791	30.566406	-650.976562
409781.180985	0.940424	30.566406	-650.976562
409781.182984	1.238511	30.566406	-650.976562
409781.186983	1.325376	30.566406	-650.976562
409781.188984	1.323056	14.553615	0.127782
409782.194999	0.649579	224.804687	42.968750
409782.197000	0.974343	224.804687	42.968750
409782.198999	1.261530	224.804687	42.968750
409782.200999	1.328481	224.804687	42.968750
409782.203001	1.324546	14.570009	0.024317
409783.241603	0.314165	32.519531	-646.191406
409783.245604	0.977030	32.519531	-646.191406
409783.247605	1.263276	32.519531	-646.191406
409783.249604	1.328502	32.519531	-646.191406
409783.251606	1.324608	14.570683	0.030254
409784.291596	0.554291	217.773437	40.820312
409784.293598	0.883602	217.773437	40.820312
409784.295598	1.192690	217.773437	40.820312
409784.297602	1.330438	217.773437	40.820312
409784.299610	1.326808	14.594887	0.018724
409785.339631	0.465945	29.101562	-655.175781
409785.341633	0.797992	29.101562	-655.175781
409785.343634	1.114334	29.101562	-655.175781
409785.345635	1.320753	29.101562	-655.175781
409785.347633	1.326163	29.101562	-655.175781
409785.349631	1.323124	14.554359	0.021527
409786.357675	0.836466	227.636719	43.457031
409786.359680	1.149812	227.636719	43.457031
409786.361681	1.326470	227.636719	43.457031
409786.363681	1.325440	227.636719	43.457031
409786.365681	1.322622	14.548838	0.025495
409787.404298	0.513747	34.667969	-642.382812
409787.406300	0.527542	34.667969	-642.382812
409787.408302	1.157513	34.667969	-642.382812
409787.410300	1.328354	34.667969	-642.382812
409787.412300	1.326639	14.593025	0.030503
409788.452853	0.509204	221.875000	41.113281
409788.454853	0.840076	221.875000	41.113281
409788.456858	1.153294	221.875000	41.113281
409788.460858	1.326273	221.875000	41.113281
409788.462859	1.323435	14.557789	0.017702
409789.503381	0.832715	28.417969	-657.812500
409789.505411	1.146390	28.417969	-657.812500
409789.507414	1.326871	28.417969	-657.812500
409789.509414	1.325942	28.417969	-657.812500
409789.511415	1.323118	14.554297	0.020325
409790.521418	1.178437	228.320312	43.164062
409790.523420	1.328447	228.320312	43.164062
409790.525420	1.325256	14.577817	0.021990
409791.565405	0.437528	33.984375	-647.851562
409791.567407	0.770587	33.984375	-647.851562
409791.569406	1.088898	33.984375	-647.851562
409791.571408	1.313800	33.984375	-647.851562
409791.573406	1.326238	33.984375	-647.851562
409791.575407	1.323146	14.554607	0.029200
409792.613439	0.345382	220.117187	40.429687
409792.615440	0.682070	220.117187	40.429687
409792.617439	1.005142	220.117187	40.429687
409792.619438	1.279591	220.117187	40.429687
409792.621439	1.327825	220.117187	40.429687
409792.623438	1.324108	14.565189	0.016456
409793.663534	0.602648	33.593750	-650.683594
409793.665541	0.929955	33.593750	-650.683594
409793.671537	1.326126	33.593750	-650.683594
409793.673540	1.323695	33.593750	-650.683594
409793.675539	1.321972	14.541695	0.075668
409794.679592	0.645149	224.316406	42.578125
409794.681596	0.970076	224.316406	42.578125
409794.683595	1.258645	224.316406	42.578125
409794.685596	1.328051	224.316406	42.578125
409794.687596	1.324042	14.564462	0.287899
409795.727631	0.555020	42.285156	-633.593750
409795.729632	0.884203	42.285156	-633.593750
409795.731632	1.193184	42.285156	-633.593750
409795.733632	1.328897	42.285156	-633.593750
409795.735633	1.325203	14.577232	0.037720
409796.776204	0.554708	218.652344	42.089844
409796.778205	0.883947	218.652344	42.089844
409796.780207	1.193007	218.652344	42.089844
409796.782205	1.329927	218.652344	42.089844
409796.784207	1.326270	14.588975	0.015058
409797.826763	0.880425	40.722656	-641.015625
409797.828764	1.189860	40.722656	-641.015625
409797.830765	1.329558	40.722656	-641.015625
409797.832763	1.325960	14.585563	0.026698
409798.839309	0.336982	223.339844	44.921875
409798.841310	0.674215	223.339844	44.921875
409798.843312	0.997799	223.339844	44.921875
409798.845311	1.275509	223.339844	44.921875
409798.847309	1.327875	223.339844	44.921875
409798.849313	1.324193	14.566128	0.025399
409799.889357	0.583599	45.605469	-629.199219
409799.891358	0.911801	45.605469	-629.199219
409799.893358	1.216532	45.605469	-629.199219
409799.895358	1.330141	45.605469	-629.199219
409799.897358	1.325963	14.585589	0.039604
409800.939418	0.831947	218.359375	43.750000
409800.941447	1.145634	218.359375	43.750000
409800.943452	1.327564	218.359375	43.750000
409800.945451	1.326730	14.594035	0.015516
409801.987519	0.754678	41.601562	-637.109375
409801.989521	1.073922	41.601562	-637.109375
409801.991521	1.309621	41.601562	-637.109375
409801.993520	1.327062	41.601562	-637.109375
409801.995520	1.323862	14.562477	0.028948
409803.002053	0.541427	222.558594	45.800781
409803.004055	0.871073	222.558594	45.800781
409803.006053	1.181653	222.558594	45.800781
409803.008054	1.330011	222.558594	45.800781
409803.010060	1.326715	14.593867	0.020096
409804.050069	0.448441	44.726562	-629.394531
409804.052071	0.781082	44.726562	-629.394531
409804.054070	1.098603	44.726562	-629.394531
409804.056070	1.316592	44.726562	-629.394531
409804.058071	1.326027	44.726562	-629.394531
409804.060071	1.322972	14.552692	0.035713
409805.100089	0.367461	221.484375	44.726562
409805.102090	1.012490	221.484375	44.726562
409805.104089	1.283512	221.484375	44.726562
409805.106093	1.327816	221.484375	44.726562
409805.108091	1.324135	14.565490	0.020770
409806.148122	0.599300	38.281250	-641.210937
409806.150125	0.926653	38.281250	-641.210937
409806.152124	1.228174	38.281250	-641.210937
409806.154125	1.329983	38.281250	-641.210937
409806.156125	1.325769	14.583454	0.074887
409807.166140	0.960252	226.367187	45.898437
409807.170142	1.328609	226.367187	45.898437
409807.172145	1.324500	226.367187	45.898437
409807.174143	1.322204	14.544247	0.237831
409808.212179	0.545095	40.722656	-635.253906
409808.214181	0.874625	40.722656	-635.253906
409808.216182	1.184755	40.722656	-635.253906
409808.218187	1.329621	40.722656	-635.253906
409808.220191	1.326205	14.588258	0.037312
409809.260204	0.453317	228.222656	44.433594
409809.262206	0.785804	228.222656	44.433594
409809.264206	1.102973	228.222656	44.433594
409809.266206	1.318145	228.222656	44.433594
409809.270203	1.323432	228.222656	44.433594
409809.272205	1.321331	14.534640	0.023892
409810.308266	0.365651	34.472656	-648.730469
409810.310267	0.701497	34.472656	-648.730469
409810.312266	0.713105	34.472656	-648.730469
409810.314268	1.289042	34.472656	-648.730469
409810.316268	1.327513	34.472656	-648.730469
409810.318267	1.323964	14.563602	0.026755
409811.324309	0.406714	236.718750	45.117187
409811.326312	0.740782	236.718750	45.117187
409811.328313	1.060707	236.718750	45.117187
409811.330312	1.304651	236.718750	45.117187
409811.332313	1.307395	236.718750	45.117187
409811.336314	1.321246	14.533701	0.032614
409812.372403	0.320932	38.867187	-638.476562
409812.376403	0.983236	38.867187	-638.476562
409812.378406	1.266890	38.867187	-638.476562
409812.382404	1.323969	38.867187	-638.476562
409812.384407	1.321759	14.539347	0.037012
409813.422454	0.570811	232.226562	41.796875
409813.424454	0.899585	232.226562	41.796875
409813.426454	1.206278	232.226562	41.796875
409813.428457	1.329788	232.226562	41.796875
409813.430456	1.325670	14.582373	0.023992
409814.470458	0.477142	34.472656	-649.218750
409814.472461	0.809052	34.472656	-649.218750
409814.474461	1.124583	34.472656	-649.218750
409814.476461	1.323391	34.472656	-649.218750
409814.478461	1.326752	34.472656	-649.218750
409814.480460	1.323710	14.560811	0.025023
409815.486561	0.527517	239.257812	43.554687
409815.488565	0.858034	239.257812	43.554687
409815.490562	1.169826	239.257812	43.554687
409815.492562	1.330026	239.257812	43.554687
409815.494563	1.327502	14.602517	0.031149
409816.535117	0.521939	39.941406	-636.425781
409816.537120	0.852120	39.941406	-636.425781
409816.539118	1.164072	39.941406	-636.425781
409816.543118	1.325623	39.941406	-636.425781
409816.545119	1.322867	14.551541	0.037430
409817.583196	0.439721	231.445312	39.746094
409817.585197	0.772671	231.445312	39.746094
409817.587198	1.090828	231.445312	39.746094
409817.589199	1.314376	231.445312	39.746094
409817.593196	1.322955	231.445312	39.746094
409817.595197	1.320805	14.528853	0.025892
409818.631191	0.340478	34.960937	-648.925781
409818.633192	0.677364	34.960937	-648.925781
409818.635192	1.000585	34.960937	-648.925781
409818.637192	1.276809	34.960937	-648.925781
409818.639192	1.327391	34.960937	-648.925781
409818.641193	1.323664	14.560307	0.029716
409819.647237	0.379525	235.546875	41.406250
409819.649240	0.714484	235.546875	41.406250
409819.651240	1.035630	235.546875	41.406250
409819.653241	1.293912	235.546875	41.406250
409819.655240	1.325969	235.546875	41.406250
409819.657239	1.322593	14.548528	0.035950
409820.695291	0.289367	41.699219	-633.886719
409820.697294	0.628667	41.699219	-633.886719
409820.699294	0.954426	41.699219	-633.886719
409820.701293	1.248064	41.699219	-633.886719
409820.703293	1.328319	41.699219	-633.886719
409820.705293	1.324273	14.567005	0.045514
409821.745353	0.543702	232.812500	39.941406
409821.747355	0.873580	232.812500	39.941406
409821.749355	1.183777	232.812500	39.941406
409821.751356	1.329542	232.812500	39.941406
409821.753355	1.326213	14.588338	0.026344
409822.793368	0.451092	37.304687	-644.921875
409822.795369	0.463031	37.304687	-644.921875
409822.797368	1.100769	37.304687	-644.921875
409822.799370	1.317013	37.304687	-644.921875
409822.801371	1.318623	37.304687	-644.921875
409822.803369	1.322766	14.550425	0.030201
409823.809426	0.493369	241.699219	42.871094
409823.811427	0.824331	241.699219	42.871094
409823.813429	1.138421	241.699219	42.871094
409823.815429	1.324814	241.699219	42.871094
409823.817430	1.325397	241.699219	42.871094
409823.819428	1.322589	14.548474	0.031240
409824.860411	0.889815	42.187500	-634.082031
409824.862413	1.197923	42.187500	-634.082031
409824.864413	1.329782	42.187500	-634.082031
409824.866413	1.325856	14.584412	0.040787
409825.908523	0.815631	233.398437	39.160156
409825.910524	1.130364	233.398437	39.160156
409825.912525	1.323679	233.398437	39.160156
409825.914524	1.325762	233.398437	39.160156
409825.916524	1.322802	14.550823	0.025658
409826.954575	0.396583	38.769531	-643.066406
409826.956577	0.731349	38.769531	-643.066406
409826.958577	1.051993	38.769531	-643.066406
409826.960578	1.301593	38.769531	-643.066406
409826.962577	1.327168	38.769531	-643.066406
409826.964576	1.323783	14.561608	0.030254
409827.970644	0.440634	243.066406	42.382812
409827.972646	0.773690	243.066406	42.382812
409827.974645	1.091799	243.066406	42.382812
409827.976646	1.314884	243.066406	42.382812
409827.978648	1.317345	243.066406	42.382812
409827.980651	1.323306	14.556362	0.030511
409829.053240	0.649841	36.035156	-648.925781
409829.055241	0.974765	36.035156	-648.925781
409829.057241	1.261829	36.035156	-648.925781
409829.059242	1.328495	36.035156	-648.925781
409829.061241	1.324504	14.569540	0.302755
409830.070157	0.829998	234.667969	39.062500
409830.072165	0.879177	234.667969	39.062500
409830.074166	1.327031	234.667969	39.062500
409830.076166	1.326884	234.667969	39.062500
409830.078166	1.323998	14.563975	0.025101
409831.118172	0.739746	37.695312	-644.628906
409831.120174	1.059917	37.695312	-644.628906
409831.122174	1.304747	37.695312	-644.628906
409831.124175	1.327284	37.695312	-644.628906
409831.126175	1.323920	14.563124	0.032153
409832.166205	0.647074	232.519531	37.988281
409832.168207	0.971983	232.519531	37.988281
409832.170205	1.259810	232.519531	37.988281
409832.172206	1.327638	232.519531	37.988281
409832.174205	1.323707	14.560776	0.291957
409833.214287	0.565271	34.179687	-651.953125
409833.216289	0.893979	34.179687	-651.953125
409833.218288	1.201369	34.179687	-651.953125
409833.220289	1.329261	34.179687	-651.953125
409833.222289	1.325333	14.578669	0.024888
409834.230408	0.618934	243.652344	42.187500
409834.234407	1.241827	243.652344	42.187500
409834.236409	1.328327	243.652344	42.187500
409834.238407	1.324218	14.566395	0.025946
409835.280447	0.857815	40.039062	-639.062500
409835.282449	1.169583	40.039062	-639.062500
409835.284448	1.328676	40.039062	-639.062500
409835.286448	1.325966	14.585625	0.028392
409836.329376	0.914584	237.988281	40.136719
409836.331379	0.927153	237.988281	40.136719
409836.333378	1.329770	237.988281	40.136719
409836.335379	1.325597	14.581566	0.017422
409837.375910	0.580439	36.718750	-646.191406
409837.377912	0.908916	36.718750	-646.191406
409837.379913	1.214238	36.718750	-646.191406
409837.381912	1.330424	36.718750	-646.191406
409837.383912	1.326382	14.590199	0.021382
409838.390906	0.445161	239.257812	42.089844
409838.392909	0.778314	239.257812	42.089844
409838.394910	1.096286	239.257812	42.089844
409838.396909	1.316487	239.257812	42.089844
409838.398909	1.326920	239.257812	42.089844
409838.400910	1.323748	14.561228	0.028539
409839.438936	0.350349	40.429687	-638.867187
409839.440938	0.367318	40.429687	-638.867187
409839.442938	1.009801	40.429687	-638.867187
409839.444939	1.281997	40.429687	-638.867187
409839.446941	1.327659	40.429687	-638.867187
409839.448940	1.324050	14.564550	0.033239
409840.492986	1.228948	236.328125	42.089844
409840.494988	1.328740	236.328125	42.089844
409840.496988	1.324618	14.570799	0.077174
409841.533031	1.724785	40.429687	-637.597656
409841.538380	0.737282	40.429687	-637.597656
409841.540382	1.057450	40.429687	-637.597656
409841.544379	1.327049	40.429687	-637.597656
409841.546381	1.323658	40.429687	-637.597656
409841.548381	1.321494	14.536431	0.024692
409842.552903	0.522463	243.066406	46.093750
409842.554903	0.852712	243.066406	46.093750
409842.556904	1.164805	243.066406	46.093750
409842.560901	1.326467	243.066406	46.093750
409842.562905	1.323591	14.559500	0.026618
409843.600936	0.429848	46.582031	-626.074219
409843.602938	0.763189	46.582031	-626.074219
409843.604938	1.081993	46.582031	-626.074219
409843.606938	1.312047	46.582031	-626.074219
409843.608939	1.326769	46.582031	-626.074219
409843.610939	1.323543	14.558976	0.041041
409844.651531	0.767797	234.960937	43.066406
409844.653532	1.086249	234.960937	43.066406
409844.655531	1.313262	234.960937	43.066406
409844.657534	1.326702	234.960937	43.066406
409844.659532	1.323554	14.559092	0.021767
409845.700079	0.763398	45.507812	-629.980469
409845.702080	1.082159	45.507812	-629.980469
409845.704080	1.312093	45.507812	-629.980469
409845.706081	1.326744	45.507812	-629.980469
409845.708080	1.326633	14.592962	0.026653
409846.714635	0.554623	237.402344	43.750000
409846.716638	0.883830	237.402344	43.750000
409846.718638	1.192853	237.402344	43.750000
409846.720638	1.329883	237.402344	43.750000
409846.722639	1.326133	14.587468	0.023861
409847.762637	0.457668	50.683594	-619.824219
409847.764639	0.789916	50.683594	-619.824219
409847.766639	1.106721	50.683594	-619.824219
409847.768641	1.318436	50.683594	-619.824219
409847.770641	1.325594	50.683594	-619.824219
409847.772640	1.325412	14.579536	0.040616
409848.819190	1.325802	236.035156	42.480469
409848.821191	1.322759	236.035156	42.480469
409848.823191	1.320606	14.526665	0.014948
409849.860125	0.515254	45.800781	-630.761719
409849.862126	0.845763	45.800781	-630.761719
409849.866122	1.328387	45.800781	-630.761719
409849.868124	1.326684	45.800781	-630.761719
409849.870124	1.323863	14.562494	0.028827
409850.876124	0.547566	242.773437	43.554687
409850.878127	0.877050	242.773437	43.554687
409850.880128	1.186821	242.773437	43.554687
409850.882127	1.329681	242.773437	43.554687
409850.884128	1.326151	14.587664	0.022683
409851.928181	1.110738	47.363281	-628.125000
409851.930183	1.319700	47.363281	-628.125000
409851.932182	1.326063	47.363281	-628.125000
409851.934183	1.323022	14.553242	0.043738
409852.972211	0.368039	234.472656	39.550781
409852.974214	0.703766	234.472656	39.550781
409852.976215	1.025623	234.472656	39.550781
409852.978215	1.290104	234.472656	39.550781
409852.980213	1.327704	234.472656	39.550781
409852.982213	1.324156	14.565721	0.019388
409854.022261	0.616563	46.777344	-631.152344
409854.024262	0.942947	46.777344	-631.152344
409854.026262	1.240307	46.777344	-631.152344
409854.028261	1.329560	46.777344	-631.152344
409854.030261	1.325378	14.579156	0.036466
409855.036758	0.396670	240.917969	40.722656
409855.038760	0.731136	240.917969	40.722656
409855.040762	1.051848	240.917969	40.722656
409855.042762	1.301364	240.917969	40.722656
409855.044762	1.326784	240.917969	40.722656
409855.046760	1.323369	14.557062	0.032808
409856.084845	0.310208	49.707031	-624.902344
409856.086847	0.648496	49.707031	-624.902344
409856.088846	0.973253	49.707031	-624.902344
409856.090847	1.260510	49.707031	-624.902344
409856.092846	1.327694	49.707031	-624.902344
409856.094848	1.323696	14.560660	0.044343
409857.134955	0.571586	236.816406	37.890625
409857.136957	0.584605	236.816406	37.890625
409857.138959	1.206799	236.816406	37.890625
409857.140957	1.329833	236.816406	37.890625
409857.142959	1.325804	14.583844	0.018287
409858.182972	0.478765	43.945312	-636.035156
409858.186970	1.126417	43.945312	-636.035156
409858.188974	1.324418	43.945312	-636.035156
409858.190972	1.327536	43.945312	-636.035156
409858.192972	1.324558	14.570144	0.033414
409859.201016	0.849550	249.023437	40.820312
409859.203019	1.161872	249.023437	40.820312
409859.205019	1.327896	249.023437	40.820312
409859.207020	1.325697	14.582665	0.028337
409860.247989	0.584226	49.316406	-623.828125
409860.249991	0.912469	49.316406	-623.828125
409860.251992	1.216965	49.316406	-623.828125
409860.253993	1.329807	49.316406	-623.828125
409860.255991	1.325594	14.581531	0.041555
409861.296568	0.583021	244.726562	38.671875
409861.298570	0.911649	244.726562	38.671875
409861.300572	1.216578	244.726562	38.671875
409861.302569	1.330607	244.726562	38.671875
409861.304571	1.326509	14.591599	0.022888
409862.345075	0.570821	44.628906	-633.886719
409862.347076	0.899425	44.628906	-633.886719
409862.349076	1.206130	44.628906	-633.886719
409862.351079	1.330013	44.628906	-633.886719
409862.355076	1.323410	14.557514	0.031483
409863.359136	0.273378	246.777344	37.792969
409863.361138	0.286439	246.777344	37.792969
409863.363138	0.939528	246.777344	37.792969
409863.365139	1.237486	246.777344	37.792969
409863.367139	1.328871	246.777344	37.792969
409863.369140	1.324724	14.571969	0.036542
409864.409200	0.529567	47.656250	-626.953125
409864.411203	0.859293	47.656250	-626.953125
409864.413203	1.170474	47.656250	-626.953125
409864.415201	1.327353	47.656250	-626.953125
409864.417203	1.324571	14.570285	0.043425
409865.457244	0.439810	244.726562	37.011719
409865.459245	0.772347	244.726562	37.011719
409865.461247	1.090167	244.726562	37.011719
409865.463247	1.313307	244.726562	37.011719
409865.465247	1.324999	244.726562	37.011719
409865.467250	1.321856	14.540419	0.027417
409866.505274	0.346295	42.578125	-636.914062
409866.507274	0.682562	42.578125	-636.914062
409866.509275	0.692881	42.578125	-636.914062
409866.511273	1.278612	42.578125	-636.914062
409866.513274	1.325874	42.578125	-636.914062
409866.515274	1.322391	14.546303	0.031335
409867.521342	0.391557	254.882812	39.746094
409867.523344	0.726255	254.882812	39.746094
409867.525344	1.047011	254.882812	39.746094
409867.527343	1.299209	254.882812	39.746094
409867.529345	1.326420	254.882812	39.746094
409867.531344	1.323095	14.554041	0.030135
409868.569372	0.296937	47.949219	-624.804687
409868.571372	0.636034	47.949219	-624.804687
409868.573372	0.961593	47.949219	-624.804687
409868.575371	1.253244	47.949219	-624.804687
409868.577372	1.328747	47.949219	-624.804687
409868.579371	1.324661	14.571268	0.045570
409869.619426	1.295437	248.828125	37.890625
409869.621426	0.877401	248.828125	37.890625
409869.623427	1.187175	248.828125	37.890625
409869.625428	1.328634	248.828125	37.890625
409869.627426	1.325029	14.575317	0.021755
409870.666428	0.279574	46.289062	-630.468750
409870.668434	0.619540	46.289062	-630.468750
409870.670433	0.946401	46.289062	-630.468750
409870.672435	1.242697	46.289062	-630.468750
409870.674433	1.328888	46.289062	-630.468750
409870.676433	1.324831	14.573138	0.036217
409871.683352	0.470665	252.246094	39.160156
409871.685352	0.802194	252.246094	39.160156
409871.687354	1.117672	252.246094	39.160156
409871.689354	1.320686	252.246094	39.160156
409871.691355	1.325198	252.246094	39.160156
409871.693353	1.322241	14.544655	0.032431
409872.731401	0.382472	50.000000	-621.289062
409872.733403	0.717130	50.000000	-621.289062
409872.735401	1.037943	50.000000	-621.289062
409872.737401	1.294804	50.000000	-621.289062
409872.739402	1.325856	50.000000	-621.289062
409872.741402	1.322510	14.547606	0.049391
409873.781457	0.629408	245.410156	37.402344
409873.783459	0.954826	245.410156	37.402344
409873.785459	1.248422	245.410156	37.402344
409873.787459	1.329127	245.410156	37.402344
409873.789460	1.325006	14.575061	0.217355
409874.829482	0.538536	48.046875	-626.367187
409874.831486	0.867845	48.046875	-626.367187
409874.833484	1.178207	48.046875	-626.367187
409874.835485	1.327303	48.046875	-626.367187
409874.837485	1.324069	14.564754	0.034781
409875.846037	0.662506	256.054687	40.722656
409875.848039	0.986042	256.054687	40.722656
409875.850038	1.267936	256.054687	40.722656
409875.852040	1.326465	256.054687	40.722656
409875.854040	1.322691	14.549601	0.381907
409876.896045	0.895409	53.515625	-614.062500
409876.898047	1.202740	53.515625	-614.062500
409876.900047	1.329398	53.515625	-614.062500
409876.902046	1.325515	14.580663	0.054292
409877.942654	1.658440	248.925781	39.257812
409877.944656	0.901752	248.925781	39.257812
409877.946657	1.208119	248.925781	39.257812
409877.948657	1.329751	248.925781	39.257812
409877.950656	1.325648	14.582125	0.022427
409878.991192	0.567383	50.976562	-619.042969
409878.993193	0.896118	50.976562	-619.042969
409878.995193	1.203376	50.976562	-619.042969
409878.997193	1.329659	50.976562	-619.042969
409878.999194	1.325694	14.582630	0.036048
409880.005706	0.349416	250.097656	40.429687
409880.007710	0.685832	250.097656	40.429687
409880.009708	1.008562	250.097656	40.429687
409880.011708	1.281308	250.097656	40.429687
409880.013708	1.327535	250.097656	40.429687
409880.015709	1.323879	14.562672	0.033350
409881.057721	0.919189	56.250000	-605.566406
409881.059723	1.222184	56.250000	-605.566406
409881.061723	1.329613	56.250000	-605.566406
409881.063722	1.325405	14.579457	0.059126
409882.103744	0.499800	248.730469	40.917969
409882.105743	0.830612	248.730469	40.917969
409882.107751	1.144225	248.730469	40.917969
409882.109749	1.150935	248.730469	40.917969
409882.111748	1.327170	248.730469	40.917969
409882.113748	1.324217	14.566385	0.021578
409883.152282	0.494296	53.710937	-608.984375
409883.154287	0.825214	53.710937	-608.984375
409883.156289	1.139616	53.710937	-608.984375
409883.158291	1.326565	53.710937	-608.984375
409883.160289	1.327121	53.710937	-608.984375
409883.162291	1.324274	14.567015	0.041033
409884.169218	0.680820	251.171875	41.406250
409884.171218	1.003777	251.171875	41.406250
409884.173220	1.278376	251.171875	41.406250
409884.175220	1.326915	251.171875	41.406250
409884.177219	1.323293	14.556220	0.036099
409885.217265	0.591537	57.031250	-599.511719
409885.219265	0.919157	57.031250	-599.511719
409885.221267	1.222115	57.031250	-599.511719
409885.223266	1.329812	57.031250	-599.511719
409885.225267	1.325601	14.581611	0.057898
409886.267899	0.929484	251.855469	41.601562
409886.269900	1.230027	251.855469	41.601562
409886.271901	1.328792	251.855469	41.601562
409886.273901	1.324653	14.571179	0.070307
409887.314486	0.603507	52.734375	-606.640625
409887.316488	0.930440	52.734375	-606.640625
409887.318488	1.230871	52.734375	-606.640625
409887.322487	1.325458	52.734375	-606.640625
409887.324489	1.322993	14.552923	0.096325
409888.328553	0.310509	258.789062	44.238281
409888.330555	0.648646	258.789062	44.238281
409888.332554	0.973199	258.789062	44.238281
409888.336554	1.327001	258.789062	44.238281
409888.338554	1.323189	258.789062	44.238281
409888.340556	1.320700	14.527702	0.039553
409889.379095	0.643734	56.542969	-597.460937
409889.381096	0.968488	56.542969	-597.460937
409889.383097	1.257164	56.542969	-597.460937
409889.385095	1.327015	56.542969	-597.460937
409889.387097	1.323140	14.554537	0.051428
409890.427652	0.638408	250.390625	41.015625
409890.429655	0.963552	250.390625	41.015625
409890.431655	1.254088	250.390625	41.015625
409890.433655	1.327506	250.390625	41.015625
409890.435654	1.323501	14.558507	0.027022
409891.475700	0.550412	49.609375	-611.425781
409891.477703	0.879646	49.609375	-611.425781
409891.479703	1.188928	49.609375	-611.425781
409891.481710	1.329299	49.609375	-611.425781
409891.483717	1.325624	14.581868	0.037210
409892.490256	0.339551	259.082031	42.675781
409892.492260	0.676289	259.082031	42.675781
409892.494257	0.999400	259.082031	42.675781
409892.496259	1.010067	259.082031	42.675781
409892.498258	1.326807	259.082031	42.675781
409892.500258	1.323114	14.554253	0.042975
409893.542330	0.919642	52.343750	-605.273437
409893.544334	1.222413	52.343750	-605.273437
409893.546333	1.329359	52.343750	-605.273437
409893.548332	1.325192	14.577109	0.054800
409894.588914	0.593066	261.230469	42.285156
409894.590916	0.920499	261.230469	42.285156
409894.594912	1.329110	261.230469	42.285156
409894.596915	1.324867	261.230469	42.285156
409894.600914	1.320548	14.526026	0.033378
409895.636942	0.501776	48.242187	-613.476562
409895.638943	0.832372	48.242187	-613.476562
409895.640945	1.145753	48.242187	-613.476562
409895.642944	1.327679	48.242187	-613.476562
409895.644944	1.327578	48.242187	-613.476562
409895.646945	1.327437	14.601808	0.034554
409896.652987	0.541126	264.746094	41.601562
409896.654989	0.870430	264.746094	41.601562
409896.656990	1.180680	264.746094	41.601562
409896.658987	1.328536	264.746094	41.601562
409896.660989	1.325255	14.577800	0.046351
409897.701017	0.450363	52.929687	-604.199219
409897.703021	0.782703	52.929687	-604.199219
409897.705020	1.099818	52.929687	-604.199219
409897.707020	1.316262	52.929687	-604.199219
409897.709020	1.325226	52.929687	-604.199219
409897.711020	1.322163	14.543796	0.054643
409898.749954	0.510335	259.667969	38.183594
409898.751958	0.840690	259.667969	38.183594
409898.753958	0.859944	259.667969	38.183594
409898.755956	1.327150	259.667969	38.183594
409898.757957	1.325740	14.583135	0.035084
409899.797996	0.422157	45.996094	-619.140625
409899.799998	0.755686	45.996094	-619.140625
409899.801997	1.074925	45.996094	-619.140625
409899.803999	1.309487	45.996094	-619.140625
409899.807996	1.323062	45.996094	-619.140625
409899.809998	1.320970	14.530670	0.039278
409900.847976	0.655117	259.863281	37.109375
409900.849977	0.979571	259.863281	37.109375
409900.851977	1.264553	259.863281	37.109375
409900.853977	1.327621	259.863281	37.109375
409900.855976	1.323721	14.560936	0.340710
409901.862518	0.444278	48.046875	-615.136719
409901.864521	0.776752	48.046875	-615.136719
409901.866519	1.094273	48.046875	-615.136719
409901.868519	1.314774	48.046875	-615.136719
409901.870523	1.325263	48.046875	-615.136719
409901.872519	1.322153	14.543680	0.054867
409902.910509	0.344584	264.550781	37.890625
409902.912510	0.681048	264.550781	37.890625
409902.914511	1.003850	264.550781	37.890625
409902.916510	1.278306	264.550781	37.890625
409902.918509	1.326654	264.550781	37.890625
409902.920510	1.322980	14.552782	0.035710
409903.962537	0.916102	46.386719	-618.750000
409903.964539	1.219683	46.386719	-618.750000
409903.966539	1.329610	46.386719	-618.750000
409903.968538	1.325427	14.579697	0.039003
409905.009064	0.580304	262.304687	36.425781
409905.011067	0.908587	262.304687	36.425781
409905.013068	1.213706	262.304687	36.425781
409905.015066	1.329899	262.304687	36.425781
409905.017066	1.325811	14.583924	0.023926
409906.059108	0.824418	43.847656	-623.242187
409906.061117	1.138357	43.847656	-623.242187
409906.063121	1.325627	43.847656	-623.242187
409906.065120	1.326076	43.847656	-623.242187
409906.067120	1.323180	14.554979	0.029384
409907.071613	0.268775	264.843750	36.621094
409907.073617	0.608861	264.843750	36.621094
409907.075618	0.935421	264.843750	36.621094
409907.077616	1.234273	264.843750	36.621094
409907.079616	1.328383	264.843750	36.621094
409907.081618	1.324156	14.565711	0.033658
409908.121642	0.518002	46.289062	-617.578125
409908.123644	0.848014	46.289062	-617.578125
409908.125644	1.160192	46.289062	-617.578125
409908.127644	1.327440	46.289062	-617.578125
409908.131644	1.322696	14.549653	0.039955
409909.169712	0.434376	260.546875	35.546875
409909.171713	0.767148	260.546875	35.546875
409909.173713	1.085300	260.546875	35.546875
409909.175712	1.312244	260.546875	35.546875
409909.177713	1.325608	260.546875	35.546875
409909.179713	1.322456	14.547012	0.027762
409910.219707	0.670130	43.945312	-622.558594
409910.221708	0.993375	43.945312	-622.558594
409910.223710	1.272372	43.945312	-622.558594
409910.225712	1.326787	43.945312	-622.558594
409910.227711	1.323133	14.554465	0.033608
409911.235716	0.704476	268.847656	37.304687
409911.237717	0.717340	268.847656	37.304687
409911.239717	1.289354	268.847656	37.304687
409911.241718	1.325784	268.847656	37.304687
409911.243718	1.322330	14.545630	0.037860
409912.282244	0.361516	48.339844	-613.671875
409912.284246	0.697090	48.339844	-613.671875
409912.286244	1.018935	48.339844	-613.671875
409912.288246	1.286075	48.339844	-613.671875
409912.290246	1.326301	48.339844	-613.671875
409912.292245	1.322792	14.550707	0.045514
409913.332256	0.599135	262.988281	35.449219
409913.334259	0.611558	262.988281	35.449219
409913.336258	1.227391	262.988281	35.449219
409913.338258	1.328706	262.988281	35.449219
409913.340257	1.324450	14.568946	0.075699
409914.380297	0.510577	44.238281	-620.312500
409914.382299	0.840696	44.238281	-620.312500
409914.384300	1.153408	44.238281	-620.312500
409914.388296	1.325366	44.238281	-620.312500
409914.390299	1.322652	14.549174	0.037346
409915.396332	0.548171	272.656250	38.281250
409915.398336	0.877114	272.656250	38.281250
409915.400336	0.890379	272.656250	38.281250
409915.402337	1.328183	272.656250	38.281250
409915.404336	1.324741	14.572155	0.037406
409916.445267	0.609030	46.582031	-615.820312
409916.447267	0.935484	46.582031	-615.820312
409916.449266	1.234472	46.582031	-615.820312
409916.451267	1.329027	46.582031	-615.820312
409916.453267	1.324922	14.574141	0.042911
409917.493349	0.526253	265.625000	36.914062
409917.497350	1.167299	265.625000	36.914062
409917.499352	1.326216	265.625000	36.914062
409917.501350	1.323609	14.559693	0.027842
409918.541374	0.434338	45.898437	-615.039062
409918.543377	0.768301	45.898437	-615.039062
409918.545376	1.087144	45.898437	-615.039062
409918.549374	1.328575	45.898437	-615.039062
409918.551378	1.325186	45.898437	-615.039062
409918.553376	1.323234	14.555573	0.034521
409919.557915	0.557583	269.921875	37.500000
409919.559918	0.886712	269.921875	37.500000
409919.561918	1.195207	269.921875	37.500000
409919.563918	1.329620	269.921875	37.500000
409919.565917	1.325859	14.584447	0.040659
409920.605939	0.466300	48.730469	-607.324219
409920.607940	0.798348	48.730469	-607.324219
409920.609941	0.812753	48.730469	-607.324219
409920.611940	1.320764	48.730469	-607.324219
409920.613939	1.326156	48.730469	-607.324219
409920.615941	1.323118	14.554297	0.043819
409921.653954	0.371234	268.164062	37.402344
409921.655957	0.706722	268.164062	37.402344
409921.657955	1.028459	268.164062	37.402344
409921.659957	1.291179	268.164062	37.402344
409921.661957	1.327168	268.164062	37.402344
409921.663956	1.323637	14.560004	0.031610
409922.703948	0.607132	45.507812	-612.304687
409922.705949	0.934117	45.507812	-612.304687
409922.707949	1.233875	45.507812	-612.304687
409922.709953	1.329749	45.507812	-612.304687
409922.711952	1.325560	14.581159	0.118879
409923.719959	0.642027	269.921875	38.867187
409923.721961	0.967350	269.921875	38.867187
409923.723963	1.257029	269.921875	38.867187
409923.725965	1.328645	269.921875	38.867187
409923.727966	1.324621	14.570834	0.044909
409924.767994	0.553030	51.269531	-599.121094
409924.769994	0.882730	51.269531	-599.121094
409924.771996	1.192031	51.269531	-599.121094
409924.773995	1.329825	51.269531	-599.121094
409924.775995	1.326225	14.588479	0.049461
409925.816020	0.461759	267.871094	38.964844
409925.818023	0.794329	267.871094	38.964844
409925.820021	1.111145	267.871094	38.964844
409925.822021	1.320613	267.871094	38.964844
409925.824024	1.327002	267.871094	38.964844
409925.826023	1.323929	14.563221	0.032900
409926.864078	0.373125	48.437500	-601.855469
409926.866080	0.708689	48.437500	-601.855469
409926.868078	1.030519	48.437500	-601.855469
409926.870078	1.292491	48.437500	-601.855469
409926.872081	1.327581	48.437500	-601.855469
409926.874078	1.324038	14.564419	0.039549
409927.880077	0.406155	274.218750	41.796875
409927.882077	0.740326	274.218750	41.796875
409927.884079	1.060374	274.218750	41.796875
409927.886078	1.304704	274.218750	41.796875
409927.888078	1.326874	274.218750	41.796875
409927.890080	1.323570	14.559269	0.044042
409928.928590	0.395366	51.367187	-594.238281
409928.930592	0.730309	51.367187	-594.238281
409928.932593	1.051232	51.367187	-594.238281
409928.934593	1.062875	51.367187	-594.238281
409928.938591	1.324239	51.367187	-594.238281
409928.940594	1.322130	14.543432	0.051592
409929.976595	0.295130	266.308594	39.648437
409929.978597	0.634278	266.308594	39.648437
409929.982594	1.252189	266.308594	39.648437
409929.984596	1.328840	266.308594	39.648437
409929.986596	1.324830	14.573130	0.030763
409931.032625	1.328760	51.953125	-592.285156
409931.034626	1.325378	51.953125	-592.285156
409931.036627	1.322741	14.550150	0.039600
409932.041200	0.333438	267.773437	40.527344
409932.043202	0.670583	267.773437	40.527344
409932.045205	0.994873	267.773437	40.527344
409932.047212	1.274158	267.773437	40.527344
409932.049210	1.327615	267.773437	40.527344
409932.051209	1.323887	14.562761	0.041997
409933.091201	0.574816	57.519531	-581.835937
409933.093203	0.903398	57.519531	-581.835937
409933.095205	1.209452	57.519531	-581.835937
409933.097203	1.329190	57.519531	-581.835937
409933.099203	1.325162	14.576781	0.050627
409934.139196	0.477548	267.675781	40.234375
409934.141199	0.809197	267.675781	40.234375
409934.143200	1.124617	267.675781	40.234375
409934.147201	1.325756	267.675781	40.234375
409934.149201	1.322794	267.675781	40.234375
409934.151201	1.320752	14.528269	0.031941
409935.187756	1.647444	55.664062	-583.789062
409935.189759	0.807957	55.664062	-583.789062
409935.191759	1.123440	55.664062	-583.789062
409935.193762	1.322953	55.664062	-583.789062
409935.195765	1.326223	55.664062	-583.789062
409935.197766	1.323290	14.556185	0.044827
409936.199804	1.698988	270.019531	40.039062
409936.205044	0.722147	270.019531	40.039062
409936.207048	1.043154	270.019531	40.039062
409936.209047	1.297842	270.019531	40.039062
409936.211046	1.326994	270.019531	40.039062
409936.215046	1.321437	14.535802	0.044349
409937.253064	0.630646	60.058594	-575.781250
409937.255065	0.956426	60.058594	-575.781250
409937.257066	1.250102	60.058594	-575.781250
409937.259067	1.330055	60.058594	-575.781250
409937.261066	1.325928	14.585209	0.248607
409938.301057	0.533620	269.042969	39.746094
409938.303057	0.863390	269.042969	39.746094
409938.305058	1.174718	269.042969	39.746094
409938.307058	1.328296	269.042969	39.746094
409938.309058	1.325215	14.577366	0.028527
409939.350044	0.601767	57.324219	-581.250000
409939.352043	0.928986	57.324219	-581.250000
409939.354042	1.229929	57.324219	-581.250000
409939.356042	1.329524	57.324219	-581.250000
409939.358044	1.325339	14.578730	0.099580
409940.364620	1.393103	272.070312	39.941406
409940.366622	0.730035	272.070312	39.941406
409940.368622	1.050614	272.070312	39.941406
409940.370622	1.300581	272.070312	39.941406
409940.372624	1.326355	272.070312	39.941406
409940.374621	1.323104	14.554147	0.038780
409941.412681	1.931626	61.718750	-573.535156
409941.414682	0.641783	61.718750	-573.535156
409941.416683	0.966969	61.718750	-573.535156
409941.418682	1.256759	61.718750	-573.535156
409941.420684	1.328609	61.718750	-573.535156
409941.422682	1.324518	14.569700	0.062046
409942.464751	0.886724	268.554687	38.281250
409942.466753	1.195385	268.554687	38.281250
409942.468752	1.330150	268.554687	38.281250
409942.470753	1.326484	14.591324	0.029668
409943.512752	0.472145	59.082031	-579.394531
409943.514752	1.110230	59.082031	-579.394531
409943.516752	1.319500	59.082031	-579.394531
409943.518752	1.325765	59.082031	-579.394531
409943.520752	1.322726	14.549981	0.044507
409944.529764	0.984546	271.191406	38.085937
409944.531765	1.267654	271.191406	38.085937
409944.533764	1.327620	271.191406	38.085937
409944.537762	1.323725	14.560971	0.358336
409945.575773	0.566073	61.914062	-574.023437
409945.577773	0.894849	61.914062	-574.023437
409945.579773	1.202312	61.914062	-574.023437
409945.581773	1.210080	61.914062	-574.023437
409945.583773	1.325433	14.579767	0.060362
409946.623773	0.472819	270.703125	37.304687
409946.625777	0.804515	270.703125	37.304687
409946.629774	1.322764	270.703125	37.304687
409946.631775	1.327055	270.703125	37.304687
409946.635773	1.322108	14.543192	0.032306
